# file: g.LSST.pb
# comment: LSST Throughputs files created from syseng_throughputs repo
# comment: Version 1.1
# comment: sha1 acd2b1389ef7356e2125ef6f9dc40a5ffe2af05b
# comment: Aerosols added to atmosphere
# comment: Wavelen_cutoff_BLUE 386.30
# comment: Wavelen_cutoff_RED 567.00
# comment: Wavelength(nm)  Throughput(0-1)
# comment: xref and bandwidth computed from the passband itself
# xtype: lam
# description: full system QE
# bandwidth: 54.44 nm
# instrument: LSST
# ytype: qe
# xref: 482.7
# filter: g
# url: https://github.com/lsst/throughputs/tree/master/baseline
# xunit: nm
 385.900000    0.000000
 386.000000    0.000000
 386.100000    0.000000
 386.200000    0.000000
 386.300000    0.000000
 386.400000    0.000000
 386.500000    0.000168
 386.600000    0.000337
 386.700000    0.000667
 386.800000    0.000999
 386.900000    0.001340
 387.000000    0.001684
 387.100000    0.002020
 387.200000    0.002358
 387.300000    0.002706
 387.400000    0.003056
 387.500000    0.003408
 387.600000    0.003761
 387.700000    0.004105
 387.800000    0.004452
 387.900000    0.004808
 388.000000    0.005167
 388.100000    0.005518
 388.200000    0.005872
 388.300000    0.006236
 388.400000    0.006601
 388.500000    0.006959
 388.600000    0.007321
 388.700000    0.007694
 388.800000    0.008068
 388.900000    0.008435
 389.000000    0.008804
 389.100000    0.009181
 389.200000    0.009560
 389.300000    0.009940
 389.400000    0.010322
 389.500000    0.010696
 389.600000    0.011071
 389.700000    0.011458
 389.800000    0.011846
 389.900000    0.012227
 390.000000    0.012609
 390.100000    0.013004
 390.200000    0.013401
 390.300000    0.013791
 390.400000    0.014182
 390.500000    0.014584
 390.600000    0.014985
 390.700000    0.015386
 390.800000    0.015790
 390.900000    0.016185
 391.000000    0.016582
 391.100000    0.016992
 391.200000    0.017403
 391.300000    0.017806
 391.400000    0.018211
 391.500000    0.018816
 391.600000    0.019424
 391.700000    0.020213
 391.800000    0.021005
 391.900000    0.021801
 392.000000    0.022600
 392.100000    0.023405
 392.200000    0.024214
 392.300000    0.025027
 392.400000    0.025843
 392.500000    0.026662
 392.600000    0.027477
 392.700000    0.028296
 392.800000    0.029117
 392.900000    0.029941
 393.000000    0.030769
 393.100000    0.031616
 393.200000    0.032467
 393.300000    0.033312
 393.400000    0.034159
 393.500000    0.035010
 393.600000    0.035875
 393.700000    0.036743
 393.800000    0.037615
 393.900000    0.038492
 394.000000    0.039372
 394.100000    0.040237
 394.200000    0.041105
 394.300000    0.041977
 394.400000    0.042852
 394.500000    0.043730
 394.600000    0.044612
 394.700000    0.045497
 394.800000    0.046385
 394.900000    0.047287
 395.000000    0.048192
 395.100000    0.049079
 395.200000    0.049969
 395.300000    0.050862
 395.400000    0.051758
 395.500000    0.052657
 395.600000    0.053559
 395.700000    0.054464
 395.800000    0.055373
 395.900000    0.056284
 396.000000    0.057199
 396.100000    0.058143
 396.200000    0.059091
 396.300000    0.060043
 396.400000    0.060999
 396.500000    0.061969
 396.600000    0.062926
 396.700000    0.063875
 396.800000    0.064827
 396.900000    0.065782
 397.000000    0.066740
 397.100000    0.067692
 397.200000    0.068647
 397.300000    0.069605
 397.400000    0.070565
 397.500000    0.071528
 397.600000    0.072493
 397.700000    0.073461
 397.800000    0.074432
 397.900000    0.075405
 398.000000    0.076382
 398.100000    0.077370
 398.200000    0.078361
 398.300000    0.079344
 398.400000    0.080329
 398.500000    0.081318
 398.600000    0.082332
 398.700000    0.083349
 398.800000    0.084370
 398.900000    0.085394
 399.000000    0.086421
 399.100000    0.087427
 399.200000    0.088435
 399.300000    0.089447
 399.400000    0.090461
 399.500000    0.091478
 399.600000    0.092499
 399.700000    0.093522
 399.800000    0.094549
 399.900000    0.095590
 400.000000    0.096634
 400.100000    0.097665
 400.200000    0.098699
 400.300000    0.099736
 400.400000    0.100777
 400.500000    0.101820
 400.600000    0.102865
 400.700000    0.103914
 400.800000    0.104966
 400.900000    0.106020
 401.000000    0.107078
 401.100000    0.108152
 401.200000    0.109229
 401.300000    0.110309
 401.400000    0.111392
 401.500000    0.112490
 401.600000    0.113561
 401.700000    0.114623
 401.800000    0.115687
 401.900000    0.116754
 402.000000    0.117823
 402.100000    0.118897
 402.200000    0.119974
 402.300000    0.121053
 402.400000    0.122135
 402.500000    0.123220
 402.600000    0.124307
 402.700000    0.125397
 402.800000    0.126490
 402.900000    0.127586
 403.000000    0.128684
 403.100000    0.129805
 403.200000    0.130928
 403.300000    0.132043
 403.400000    0.133160
 403.500000    0.134280
 403.600000    0.135402
 403.700000    0.136528
 403.800000    0.137657
 403.900000    0.138788
 404.000000    0.139923
 404.100000    0.141045
 404.200000    0.142170
 404.300000    0.143298
 404.400000    0.144429
 404.500000    0.145562
 404.600000    0.146738
 404.700000    0.147917
 404.800000    0.149099
 404.900000    0.150297
 405.000000    0.151498
 405.100000    0.152654
 405.200000    0.153812
 405.300000    0.154974
 405.400000    0.156138
 405.500000    0.157305
 405.600000    0.158474
 405.700000    0.159647
 405.800000    0.160822
 405.900000    0.162000
 406.000000    0.163180
 406.100000    0.164369
 406.200000    0.165561
 406.300000    0.166756
 406.400000    0.167954
 406.500000    0.169167
 406.600000    0.170383
 406.700000    0.171590
 406.800000    0.172799
 406.900000    0.174011
 407.000000    0.175226
 407.100000    0.176413
 407.200000    0.177602
 407.300000    0.178794
 407.400000    0.179989
 407.500000    0.181186
 407.600000    0.182385
 407.700000    0.183587
 407.800000    0.184792
 407.900000    0.185999
 408.000000    0.187209
 408.100000    0.188436
 408.200000    0.189666
 408.300000    0.190886
 408.400000    0.192108
 408.500000    0.193333
 408.600000    0.194561
 408.700000    0.195791
 408.800000    0.197023
 408.900000    0.198259
 409.000000    0.199496
 409.100000    0.200735
 409.200000    0.201976
 409.300000    0.203220
 409.400000    0.204466
 409.500000    0.205715
 409.600000    0.206967
 409.700000    0.208221
 409.800000    0.209477
 409.900000    0.210750
 410.000000    0.212025
 410.100000    0.213312
 410.200000    0.214602
 410.300000    0.215895
 410.400000    0.217191
 410.500000    0.218489
 410.600000    0.219849
 410.700000    0.221212
 410.800000    0.222579
 410.900000    0.223949
 411.000000    0.225322
 411.100000    0.226622
 411.200000    0.227924
 411.300000    0.229230
 411.400000    0.230537
 411.500000    0.231862
 411.600000    0.233189
 411.700000    0.234505
 411.800000    0.235823
 411.900000    0.237145
 412.000000    0.238469
 412.100000    0.239744
 412.200000    0.241021
 412.300000    0.241912
 412.400000    0.242805
 412.500000    0.243561
 412.600000    0.244318
 412.700000    0.245090
 412.800000    0.245863
 412.900000    0.246637
 413.000000    0.247413
 413.100000    0.248228
 413.200000    0.249045
 413.300000    0.249878
 413.400000    0.250712
 413.500000    0.251533
 413.600000    0.252356
 413.700000    0.253195
 413.800000    0.254035
 413.900000    0.254862
 414.000000    0.255691
 414.100000    0.256525
 414.200000    0.257361
 414.300000    0.258184
 414.400000    0.259008
 414.500000    0.259848
 414.600000    0.260690
 414.700000    0.261533
 414.800000    0.262377
 414.900000    0.263209
 415.000000    0.264042
 415.100000    0.264881
 415.200000    0.265722
 415.300000    0.266550
 415.400000    0.267379
 415.500000    0.268225
 415.600000    0.269071
 415.700000    0.269775
 415.800000    0.270480
 415.900000    0.270783
 416.000000    0.271085
 416.100000    0.271371
 416.200000    0.271657
 416.300000    0.271944
 416.400000    0.272230
 416.500000    0.272517
 416.600000    0.272804
 416.700000    0.273091
 416.800000    0.273378
 416.900000    0.273666
 417.000000    0.273953
 417.100000    0.274254
 417.200000    0.274555
 417.300000    0.274856
 417.400000    0.275157
 417.500000    0.275459
 417.600000    0.275760
 417.700000    0.276062
 417.800000    0.276364
 417.900000    0.276666
 418.000000    0.276968
 418.100000    0.277250
 418.200000    0.277533
 418.300000    0.277815
 418.400000    0.278098
 418.500000    0.278381
 418.600000    0.278664
 418.700000    0.278947
 418.800000    0.279230
 418.900000    0.279514
 419.000000    0.279798
 419.100000    0.280070
 419.200000    0.280342
 419.300000    0.280615
 419.400000    0.280887
 419.500000    0.281160
 419.600000    0.281433
 419.700000    0.281706
 419.800000    0.281979
 419.900000    0.282253
 420.000000    0.282526
 420.100000    0.282840
 420.200000    0.283155
 420.300000    0.283469
 420.400000    0.283784
 420.500000    0.284099
 420.600000    0.284414
 420.700000    0.284730
 420.800000    0.285045
 420.900000    0.285361
 421.000000    0.285677
 421.100000    0.285949
 421.200000    0.286220
 421.300000    0.286492
 421.400000    0.286764
 421.500000    0.287036
 421.600000    0.287308
 421.700000    0.287581
 421.800000    0.287853
 421.900000    0.288126
 422.000000    0.288399
 422.100000    0.288678
 422.200000    0.288957
 422.300000    0.289237
 422.400000    0.289516
 422.500000    0.289796
 422.600000    0.290076
 422.700000    0.290356
 422.800000    0.290636
 422.900000    0.290917
 423.000000    0.291197
 423.100000    0.291400
 423.200000    0.291602
 423.300000    0.291804
 423.400000    0.292007
 423.500000    0.292209
 423.600000    0.292487
 423.700000    0.292765
 423.800000    0.293043
 423.900000    0.293321
 424.000000    0.293599
 424.100000    0.293880
 424.200000    0.294161
 424.300000    0.294442
 424.400000    0.294723
 424.500000    0.295004
 424.600000    0.295285
 424.700000    0.295567
 424.800000    0.295849
 424.900000    0.296131
 425.000000    0.296413
 425.100000    0.296712
 425.200000    0.297011
 425.300000    0.297310
 425.400000    0.297610
 425.500000    0.297910
 425.600000    0.298210
 425.700000    0.298510
 425.800000    0.298810
 425.900000    0.299111
 426.000000    0.299412
 426.100000    0.299650
 426.200000    0.299889
 426.300000    0.300128
 426.400000    0.300367
 426.500000    0.300606
 426.600000    0.300845
 426.700000    0.301085
 426.800000    0.301324
 426.900000    0.301564
 427.000000    0.301804
 427.100000    0.302069
 427.200000    0.302334
 427.300000    0.302599
 427.400000    0.302864
 427.500000    0.303130
 427.600000    0.303318
 427.700000    0.303507
 427.800000    0.303695
 427.900000    0.303884
 428.000000    0.304072
 428.100000    0.304433
 428.200000    0.304794
 428.300000    0.305156
 428.400000    0.305517
 428.500000    0.305879
 428.600000    0.306164
 428.700000    0.306448
 428.800000    0.306733
 428.900000    0.307018
 429.000000    0.307303
 429.100000    0.307607
 429.200000    0.307911
 429.300000    0.308216
 429.400000    0.308520
 429.500000    0.308825
 429.600000    0.309052
 429.700000    0.309278
 429.800000    0.309505
 429.900000    0.309732
 430.000000    0.309959
 430.100000    0.310198
 430.200000    0.310438
 430.300000    0.310677
 430.400000    0.310917
 430.500000    0.311156
 430.600000    0.311396
 430.700000    0.311636
 430.800000    0.311876
 430.900000    0.312116
 431.000000    0.312356
 431.100000    0.312645
 431.200000    0.312933
 431.300000    0.313222
 431.400000    0.313511
 431.500000    0.313800
 431.600000    0.314089
 431.700000    0.314379
 431.800000    0.314668
 431.900000    0.314958
 432.000000    0.315248
 432.100000    0.315508
 432.200000    0.315768
 432.300000    0.316028
 432.400000    0.316288
 432.500000    0.316548
 432.600000    0.316729
 432.700000    0.316910
 432.800000    0.317091
 432.900000    0.317272
 433.000000    0.317454
 433.100000    0.317685
 433.200000    0.317917
 433.300000    0.318149
 433.400000    0.318382
 433.500000    0.318614
 433.600000    0.318847
 433.700000    0.319080
 433.800000    0.319313
 433.900000    0.319547
 434.000000    0.319780
 434.100000    0.319992
 434.200000    0.320203
 434.300000    0.320414
 434.400000    0.320625
 434.500000    0.320835
 434.600000    0.321125
 434.700000    0.321414
 434.800000    0.321703
 434.900000    0.321992
 435.000000    0.322280
 435.100000    0.322522
 435.200000    0.322764
 435.300000    0.323005
 435.400000    0.323246
 435.500000    0.323486
 435.600000    0.323725
 435.700000    0.323965
 435.800000    0.324204
 435.900000    0.324443
 436.000000    0.324682
 436.100000    0.324924
 436.200000    0.325165
 436.300000    0.325407
 436.400000    0.325648
 436.500000    0.325889
 436.600000    0.326130
 436.700000    0.326371
 436.800000    0.326611
 436.900000    0.326851
 437.000000    0.327091
 437.100000    0.327318
 437.200000    0.327545
 437.300000    0.327771
 437.400000    0.327998
 437.500000    0.328225
 437.600000    0.328452
 437.700000    0.328679
 437.800000    0.328906
 437.900000    0.329133
 438.000000    0.329361
 438.100000    0.329510
 438.200000    0.329659
 438.300000    0.329809
 438.400000    0.329960
 438.500000    0.330111
 438.600000    0.330344
 438.700000    0.330578
 438.800000    0.330811
 438.900000    0.331046
 439.000000    0.331280
 439.100000    0.331431
 439.200000    0.331582
 439.300000    0.331734
 439.400000    0.331886
 439.500000    0.332039
 439.600000    0.332274
 439.700000    0.332510
 439.800000    0.332747
 439.900000    0.332984
 440.000000    0.333223
 440.100000    0.333475
 440.200000    0.333729
 440.300000    0.333984
 440.400000    0.334239
 440.500000    0.334495
 440.600000    0.334752
 440.700000    0.335010
 440.800000    0.335268
 440.900000    0.335527
 441.000000    0.335786
 441.100000    0.336040
 441.200000    0.336295
 441.300000    0.336550
 441.400000    0.336805
 441.500000    0.337060
 441.600000    0.337315
 441.700000    0.337569
 441.800000    0.337824
 441.900000    0.338079
 442.000000    0.338334
 442.100000    0.338537
 442.200000    0.338740
 442.300000    0.338943
 442.400000    0.339146
 442.500000    0.339349
 442.600000    0.339469
 442.700000    0.339588
 442.800000    0.339708
 442.900000    0.339828
 443.000000    0.339947
 443.100000    0.340190
 443.200000    0.340432
 443.300000    0.340675
 443.400000    0.340918
 443.500000    0.341161
 443.600000    0.341404
 443.700000    0.341647
 443.800000    0.341890
 443.900000    0.342133
 444.000000    0.342377
 444.100000    0.342522
 444.200000    0.342667
 444.300000    0.342812
 444.400000    0.342957
 444.500000    0.343102
 444.600000    0.343247
 444.700000    0.343392
 444.800000    0.343537
 444.900000    0.343682
 445.000000    0.343827
 445.100000    0.344048
 445.200000    0.344269
 445.300000    0.344490
 445.400000    0.344712
 445.500000    0.344933
 445.600000    0.345154
 445.700000    0.345376
 445.800000    0.345598
 445.900000    0.345819
 446.000000    0.346041
 446.100000    0.346331
 446.200000    0.346621
 446.300000    0.346911
 446.400000    0.347201
 446.500000    0.347491
 446.600000    0.347611
 446.700000    0.347732
 446.800000    0.347852
 446.900000    0.347972
 447.000000    0.348093
 447.100000    0.348344
 447.200000    0.348596
 447.300000    0.348848
 447.400000    0.349100
 447.500000    0.349352
 447.600000    0.349519
 447.700000    0.349686
 447.800000    0.349853
 447.900000    0.350020
 448.000000    0.350187
 448.100000    0.350403
 448.200000    0.350618
 448.300000    0.350834
 448.400000    0.351050
 448.500000    0.351266
 448.600000    0.351483
 448.700000    0.351700
 448.800000    0.351917
 448.900000    0.352134
 449.000000    0.352351
 449.100000    0.352542
 449.200000    0.352733
 449.300000    0.352923
 449.400000    0.353113
 449.500000    0.353302
 449.600000    0.353490
 449.700000    0.353678
 449.800000    0.353866
 449.900000    0.354052
 450.000000    0.354238
 450.100000    0.354350
 450.200000    0.354461
 450.300000    0.354571
 450.400000    0.354680
 450.500000    0.354789
 450.600000    0.354984
 450.700000    0.355178
 450.800000    0.355371
 450.900000    0.355565
 451.000000    0.355758
 451.100000    0.355943
 451.200000    0.356129
 451.300000    0.356314
 451.400000    0.356500
 451.500000    0.356685
 451.600000    0.356785
 451.700000    0.356884
 451.800000    0.356983
 451.900000    0.357082
 452.000000    0.357180
 452.100000    0.357377
 452.200000    0.357573
 452.300000    0.357769
 452.400000    0.357966
 452.500000    0.358161
 452.600000    0.358357
 452.700000    0.358552
 452.800000    0.358748
 452.900000    0.358943
 453.000000    0.359138
 453.100000    0.359212
 453.200000    0.359285
 453.300000    0.359359
 453.400000    0.359433
 453.500000    0.359508
 453.600000    0.359669
 453.700000    0.359830
 453.800000    0.359991
 453.900000    0.360153
 454.000000    0.360315
 454.100000    0.360511
 454.200000    0.360707
 454.300000    0.360904
 454.400000    0.361101
 454.500000    0.361300
 454.600000    0.361499
 454.700000    0.361700
 454.800000    0.361901
 454.900000    0.362104
 455.000000    0.362307
 455.100000    0.362370
 455.200000    0.362434
 455.300000    0.362499
 455.400000    0.362564
 455.500000    0.362630
 455.600000    0.362784
 455.700000    0.362938
 455.800000    0.363093
 455.900000    0.363249
 456.000000    0.363405
 456.100000    0.363510
 456.200000    0.363615
 456.300000    0.363720
 456.400000    0.363825
 456.500000    0.363930
 456.600000    0.364122
 456.700000    0.364314
 456.800000    0.364507
 456.900000    0.364699
 457.000000    0.364891
 457.100000    0.365067
 457.200000    0.365243
 457.300000    0.365419
 457.400000    0.365595
 457.500000    0.365771
 457.600000    0.365859
 457.700000    0.365947
 457.800000    0.366035
 457.900000    0.366124
 458.000000    0.366212
 458.100000    0.366284
 458.200000    0.366356
 458.300000    0.366427
 458.400000    0.366499
 458.500000    0.366571
 458.600000    0.366731
 458.700000    0.366892
 458.800000    0.367052
 458.900000    0.367213
 459.000000    0.367373
 459.100000    0.367587
 459.200000    0.367800
 459.300000    0.368012
 459.400000    0.368225
 459.500000    0.368437
 459.600000    0.368560
 459.700000    0.368684
 459.800000    0.368807
 459.900000    0.368929
 460.000000    0.369051
 460.100000    0.369214
 460.200000    0.369377
 460.300000    0.369540
 460.400000    0.369701
 460.500000    0.369863
 460.600000    0.369935
 460.700000    0.370006
 460.800000    0.370077
 460.900000    0.370148
 461.000000    0.370218
 461.100000    0.370360
 461.200000    0.370503
 461.300000    0.370644
 461.400000    0.370786
 461.500000    0.370927
 461.600000    0.370980
 461.700000    0.371031
 461.800000    0.371083
 461.900000    0.371134
 462.000000    0.371184
 462.100000    0.371295
 462.200000    0.371406
 462.300000    0.371517
 462.400000    0.371627
 462.500000    0.371738
 462.600000    0.371849
 462.700000    0.371960
 462.800000    0.372072
 462.900000    0.372183
 463.000000    0.372295
 463.100000    0.372357
 463.200000    0.372419
 463.300000    0.372482
 463.400000    0.372544
 463.500000    0.372607
 463.600000    0.372758
 463.700000    0.372909
 463.800000    0.373059
 463.900000    0.373210
 464.000000    0.373360
 464.100000    0.373416
 464.200000    0.373473
 464.300000    0.373529
 464.400000    0.373586
 464.500000    0.373644
 464.600000    0.373791
 464.700000    0.373939
 464.800000    0.374088
 464.900000    0.374237
 465.000000    0.374388
 465.100000    0.374545
 465.200000    0.374704
 465.300000    0.374863
 465.400000    0.375024
 465.500000    0.375186
 465.600000    0.375349
 465.700000    0.375513
 465.800000    0.375677
 465.900000    0.375842
 466.000000    0.376008
 466.100000    0.376143
 466.200000    0.376279
 466.300000    0.376415
 466.400000    0.376551
 466.500000    0.376686
 466.600000    0.376731
 466.700000    0.376777
 466.800000    0.376822
 466.900000    0.376868
 467.000000    0.376913
 467.100000    0.377073
 467.200000    0.377232
 467.300000    0.377392
 467.400000    0.377552
 467.500000    0.377711
 467.600000    0.377782
 467.700000    0.377852
 467.800000    0.377922
 467.900000    0.377993
 468.000000    0.378063
 468.100000    0.378227
 468.200000    0.378392
 468.300000    0.378556
 468.400000    0.378720
 468.500000    0.378885
 468.600000    0.378959
 468.700000    0.379034
 468.800000    0.379109
 468.900000    0.379184
 469.000000    0.379259
 469.100000    0.379373
 469.200000    0.379487
 469.300000    0.379601
 469.400000    0.379715
 469.500000    0.379829
 469.600000    0.379853
 469.700000    0.379877
 469.800000    0.379902
 469.900000    0.379926
 470.000000    0.379951
 470.100000    0.380108
 470.200000    0.380266
 470.300000    0.380423
 470.400000    0.380581
 470.500000    0.380738
 470.600000    0.380896
 470.700000    0.381054
 470.800000    0.381211
 470.900000    0.381369
 471.000000    0.381527
 471.100000    0.381571
 471.200000    0.381615
 471.300000    0.381659
 471.400000    0.381703
 471.500000    0.381747
 471.600000    0.381882
 471.700000    0.382016
 471.800000    0.382150
 471.900000    0.382284
 472.000000    0.382418
 472.100000    0.382476
 472.200000    0.382534
 472.300000    0.382592
 472.400000    0.382651
 472.500000    0.382709
 472.600000    0.382857
 472.700000    0.383005
 472.800000    0.383154
 472.900000    0.383302
 473.000000    0.383451
 473.100000    0.383480
 473.200000    0.383510
 473.300000    0.383540
 473.400000    0.383570
 473.500000    0.383600
 473.600000    0.383720
 473.700000    0.383841
 473.800000    0.383961
 473.900000    0.384081
 474.000000    0.384201
 474.100000    0.384234
 474.200000    0.384267
 474.300000    0.384300
 474.400000    0.384333
 474.500000    0.384367
 474.600000    0.384400
 474.700000    0.384433
 474.800000    0.384466
 474.900000    0.384499
 475.000000    0.384532
 475.100000    0.384687
 475.200000    0.384842
 475.300000    0.384998
 475.400000    0.385153
 475.500000    0.385308
 475.600000    0.385373
 475.700000    0.385438
 475.800000    0.385503
 475.900000    0.385568
 476.000000    0.385633
 476.100000    0.385749
 476.200000    0.385864
 476.300000    0.385980
 476.400000    0.386095
 476.500000    0.386211
 476.600000    0.386236
 476.700000    0.386261
 476.800000    0.386286
 476.900000    0.386311
 477.000000    0.386337
 477.100000    0.386409
 477.200000    0.386481
 477.300000    0.386552
 477.400000    0.386624
 477.500000    0.386696
 477.600000    0.386859
 477.700000    0.387022
 477.800000    0.387184
 477.900000    0.387347
 478.000000    0.387510
 478.100000    0.387534
 478.200000    0.387559
 478.300000    0.387584
 478.400000    0.387608
 478.500000    0.387633
 478.600000    0.387658
 478.700000    0.387682
 478.800000    0.387707
 478.900000    0.387732
 479.000000    0.387756
 479.100000    0.387776
 479.200000    0.387796
 479.300000    0.387816
 479.400000    0.387837
 479.500000    0.387857
 479.600000    0.387877
 479.700000    0.387897
 479.800000    0.387917
 479.900000    0.387937
 480.000000    0.387957
 480.100000    0.388114
 480.200000    0.388270
 480.300000    0.388427
 480.400000    0.388584
 480.500000    0.388741
 480.600000    0.388807
 480.700000    0.388873
 480.800000    0.388940
 480.900000    0.389006
 481.000000    0.389072
 481.100000    0.389185
 481.200000    0.389298
 481.300000    0.389411
 481.400000    0.389524
 481.500000    0.389637
 481.600000    0.389659
 481.700000    0.389682
 481.800000    0.389704
 481.900000    0.389726
 482.000000    0.389748
 482.100000    0.389924
 482.200000    0.390100
 482.300000    0.390276
 482.400000    0.390452
 482.500000    0.390628
 482.600000    0.390713
 482.700000    0.390799
 482.800000    0.390884
 482.900000    0.390969
 483.000000    0.391054
 483.100000    0.391161
 483.200000    0.391267
 483.300000    0.391374
 483.400000    0.391481
 483.500000    0.391588
 483.600000    0.391695
 483.700000    0.391802
 483.800000    0.391910
 483.900000    0.392018
 484.000000    0.392125
 484.100000    0.392147
 484.200000    0.392168
 484.300000    0.392188
 484.400000    0.392208
 484.500000    0.392227
 484.600000    0.392337
 484.700000    0.392446
 484.800000    0.392555
 484.900000    0.392662
 485.000000    0.392769
 485.100000    0.392776
 485.200000    0.392783
 485.300000    0.392788
 485.400000    0.392793
 485.500000    0.392797
 485.600000    0.392892
 485.700000    0.392986
 485.800000    0.393080
 485.900000    0.393173
 486.000000    0.393266
 486.100000    0.393373
 486.200000    0.393481
 486.300000    0.393588
 486.400000    0.393695
 486.500000    0.393803
 486.600000    0.393819
 486.700000    0.393835
 486.800000    0.393850
 486.900000    0.393865
 487.000000    0.393880
 487.100000    0.393980
 487.200000    0.394079
 487.300000    0.394178
 487.400000    0.394277
 487.500000    0.394376
 487.600000    0.394384
 487.700000    0.394392
 487.800000    0.394400
 487.900000    0.394408
 488.000000    0.394416
 488.100000    0.394418
 488.200000    0.394419
 488.300000    0.394422
 488.400000    0.394424
 488.500000    0.394427
 488.600000    0.394429
 488.700000    0.394432
 488.800000    0.394435
 488.900000    0.394437
 489.000000    0.394440
 489.100000    0.394495
 489.200000    0.394550
 489.300000    0.394605
 489.400000    0.394661
 489.500000    0.394717
 489.600000    0.394682
 489.700000    0.394649
 489.800000    0.394616
 489.900000    0.394584
 490.000000    0.394553
 490.100000    0.394647
 490.200000    0.394743
 490.300000    0.394839
 490.400000    0.394937
 490.500000    0.395035
 490.600000    0.395042
 490.700000    0.395051
 490.800000    0.395059
 490.900000    0.395068
 491.000000    0.395078
 491.100000    0.395180
 491.200000    0.395282
 491.300000    0.395384
 491.400000    0.395486
 491.500000    0.395587
 491.600000    0.395597
 491.700000    0.395607
 491.800000    0.395616
 491.900000    0.395626
 492.000000    0.395636
 492.100000    0.395753
 492.200000    0.395871
 492.300000    0.395988
 492.400000    0.396105
 492.500000    0.396223
 492.600000    0.396249
 492.700000    0.396275
 492.800000    0.396301
 492.900000    0.396327
 493.000000    0.396354
 493.100000    0.396362
 493.200000    0.396371
 493.300000    0.396380
 493.400000    0.396389
 493.500000    0.396398
 493.600000    0.396498
 493.700000    0.396598
 493.800000    0.396698
 493.900000    0.396799
 494.000000    0.396899
 494.100000    0.396906
 494.200000    0.396913
 494.300000    0.396920
 494.400000    0.396928
 494.500000    0.396935
 494.600000    0.396942
 494.700000    0.396949
 494.800000    0.396956
 494.900000    0.396964
 495.000000    0.396971
 495.100000    0.397082
 495.200000    0.397193
 495.300000    0.397303
 495.400000    0.397414
 495.500000    0.397525
 495.600000    0.397545
 495.700000    0.397564
 495.800000    0.397584
 495.900000    0.397603
 496.000000    0.397623
 496.100000    0.397682
 496.200000    0.397740
 496.300000    0.397799
 496.400000    0.397858
 496.500000    0.397916
 496.600000    0.397975
 496.700000    0.398034
 496.800000    0.398092
 496.900000    0.398151
 497.000000    0.398210
 497.100000    0.398328
 497.200000    0.398447
 497.300000    0.398566
 497.400000    0.398685
 497.500000    0.398803
 497.600000    0.398831
 497.700000    0.398858
 497.800000    0.398885
 497.900000    0.398912
 498.000000    0.398939
 498.100000    0.398943
 498.200000    0.398946
 498.300000    0.398950
 498.400000    0.398953
 498.500000    0.398956
 498.600000    0.398960
 498.700000    0.398963
 498.800000    0.398966
 498.900000    0.398970
 499.000000    0.398973
 499.100000    0.399072
 499.200000    0.399170
 499.300000    0.399269
 499.400000    0.399367
 499.500000    0.399466
 499.600000    0.399473
 499.700000    0.399480
 499.800000    0.399486
 499.900000    0.399493
 500.000000    0.399500
 500.100000    0.399427
 500.200000    0.399354
 500.300000    0.399280
 500.400000    0.399207
 500.500000    0.399134
 500.600000    0.399152
 500.700000    0.399171
 500.800000    0.399189
 500.900000    0.399207
 501.000000    0.399226
 501.100000    0.399239
 501.200000    0.399252
 501.300000    0.399266
 501.400000    0.399279
 501.500000    0.399292
 501.600000    0.399305
 501.700000    0.399319
 501.800000    0.399332
 501.900000    0.399345
 502.000000    0.399359
 502.100000    0.399358
 502.200000    0.399357
 502.300000    0.399356
 502.400000    0.399355
 502.500000    0.399354
 502.600000    0.399262
 502.700000    0.399169
 502.800000    0.399077
 502.900000    0.398984
 503.000000    0.398892
 503.100000    0.398912
 503.200000    0.398932
 503.300000    0.398952
 503.400000    0.398972
 503.500000    0.398992
 503.600000    0.398920
 503.700000    0.398850
 503.800000    0.398779
 503.900000    0.398709
 504.000000    0.398638
 504.100000    0.398734
 504.200000    0.398830
 504.300000    0.398925
 504.400000    0.399020
 504.500000    0.399113
 504.600000    0.399205
 504.700000    0.399297
 504.800000    0.399387
 504.900000    0.399476
 505.000000    0.399564
 505.100000    0.399565
 505.200000    0.399566
 505.300000    0.399566
 505.400000    0.399565
 505.500000    0.399563
 505.600000    0.399560
 505.700000    0.399557
 505.800000    0.399553
 505.900000    0.399549
 506.000000    0.399545
 506.100000    0.399651
 506.200000    0.399757
 506.300000    0.399863
 506.400000    0.399969
 506.500000    0.400076
 506.600000    0.400183
 506.700000    0.400290
 506.800000    0.400397
 506.900000    0.400504
 507.000000    0.400610
 507.100000    0.400597
 507.200000    0.400583
 507.300000    0.400569
 507.400000    0.400555
 507.500000    0.400540
 507.600000    0.400618
 507.700000    0.400695
 507.800000    0.400773
 507.900000    0.400850
 508.000000    0.400928
 508.100000    0.400913
 508.200000    0.400899
 508.300000    0.400885
 508.400000    0.400872
 508.500000    0.400858
 508.600000    0.400937
 508.700000    0.401015
 508.800000    0.401093
 508.900000    0.401172
 509.000000    0.401250
 509.100000    0.401341
 509.200000    0.401433
 509.300000    0.401524
 509.400000    0.401617
 509.500000    0.401710
 509.600000    0.401711
 509.700000    0.401714
 509.800000    0.401717
 509.900000    0.401721
 510.000000    0.401726
 510.100000    0.401830
 510.200000    0.401934
 510.300000    0.402039
 510.400000    0.402145
 510.500000    0.402252
 510.600000    0.402268
 510.700000    0.402284
 510.800000    0.402301
 510.900000    0.402319
 511.000000    0.402337
 511.100000    0.402438
 511.200000    0.402540
 511.300000    0.402641
 511.400000    0.402743
 511.500000    0.402844
 511.600000    0.402853
 511.700000    0.402862
 511.800000    0.402871
 511.900000    0.402880
 512.000000    0.402889
 512.100000    0.402906
 512.200000    0.402922
 512.300000    0.402939
 512.400000    0.402955
 512.500000    0.402972
 512.600000    0.403080
 512.700000    0.403189
 512.800000    0.403297
 512.900000    0.403405
 513.000000    0.403514
 513.100000    0.403512
 513.200000    0.403511
 513.300000    0.403509
 513.400000    0.403508
 513.500000    0.403506
 513.600000    0.403505
 513.700000    0.403503
 513.800000    0.403502
 513.900000    0.403500
 514.000000    0.403499
 514.100000    0.403613
 514.200000    0.403727
 514.300000    0.403841
 514.400000    0.403956
 514.500000    0.404070
 514.600000    0.404092
 514.700000    0.404115
 514.800000    0.404137
 514.900000    0.404159
 515.000000    0.404182
 515.100000    0.404236
 515.200000    0.404290
 515.300000    0.404344
 515.400000    0.404398
 515.500000    0.404452
 515.600000    0.404506
 515.700000    0.404560
 515.800000    0.404615
 515.900000    0.404669
 516.000000    0.404723
 516.100000    0.404829
 516.200000    0.404936
 516.300000    0.405042
 516.400000    0.405149
 516.500000    0.405255
 516.600000    0.405270
 516.700000    0.405285
 516.800000    0.405299
 516.900000    0.405314
 517.000000    0.405328
 517.100000    0.405323
 517.200000    0.405318
 517.300000    0.405313
 517.400000    0.405308
 517.500000    0.405304
 517.600000    0.405299
 517.700000    0.405294
 517.800000    0.405289
 517.900000    0.405284
 518.000000    0.405279
 518.100000    0.405264
 518.200000    0.405249
 518.300000    0.405234
 518.400000    0.405220
 518.500000    0.405205
 518.600000    0.405190
 518.700000    0.405175
 518.800000    0.405161
 518.900000    0.405146
 519.000000    0.405131
 519.100000    0.405240
 519.200000    0.405348
 519.300000    0.405457
 519.400000    0.405566
 519.500000    0.405675
 519.600000    0.405691
 519.700000    0.405708
 519.800000    0.405725
 519.900000    0.405741
 520.000000    0.405758
 520.100000    0.405773
 520.200000    0.405788
 520.300000    0.405803
 520.400000    0.405817
 520.500000    0.405832
 520.600000    0.405847
 520.700000    0.405862
 520.800000    0.405877
 520.900000    0.405891
 521.000000    0.405906
 521.100000    0.405902
 521.200000    0.405899
 521.300000    0.405895
 521.400000    0.405892
 521.500000    0.405888
 521.600000    0.405884
 521.700000    0.405881
 521.800000    0.405877
 521.900000    0.405874
 522.000000    0.405870
 522.100000    0.405861
 522.200000    0.405851
 522.300000    0.405842
 522.400000    0.405833
 522.500000    0.405824
 522.600000    0.405814
 522.700000    0.405805
 522.800000    0.405796
 522.900000    0.405787
 523.000000    0.405777
 523.100000    0.405834
 523.200000    0.405891
 523.300000    0.405948
 523.400000    0.406005
 523.500000    0.406062
 523.600000    0.406118
 523.700000    0.406175
 523.800000    0.406232
 523.900000    0.406289
 524.000000    0.406346
 524.100000    0.406359
 524.200000    0.406372
 524.300000    0.406385
 524.400000    0.406398
 524.500000    0.406411
 524.600000    0.406424
 524.700000    0.406437
 524.800000    0.406450
 524.900000    0.406463
 525.000000    0.406476
 525.100000    0.406360
 525.200000    0.406244
 525.300000    0.406127
 525.400000    0.406011
 525.500000    0.405895
 525.600000    0.405871
 525.700000    0.405847
 525.800000    0.405823
 525.900000    0.405799
 526.000000    0.405775
 526.100000    0.405785
 526.200000    0.405796
 526.300000    0.405806
 526.400000    0.405816
 526.500000    0.405826
 526.600000    0.405836
 526.700000    0.405846
 526.800000    0.405856
 526.900000    0.405866
 527.000000    0.405876
 527.100000    0.405891
 527.200000    0.405906
 527.300000    0.405920
 527.400000    0.405935
 527.500000    0.405950
 527.600000    0.405965
 527.700000    0.405979
 527.800000    0.405994
 527.900000    0.406009
 528.000000    0.406023
 528.100000    0.406024
 528.200000    0.406024
 528.300000    0.406025
 528.400000    0.406025
 528.500000    0.406026
 528.600000    0.406026
 528.700000    0.406027
 528.800000    0.406027
 528.900000    0.406027
 529.000000    0.406028
 529.100000    0.406079
 529.200000    0.406130
 529.300000    0.406181
 529.400000    0.406233
 529.500000    0.406284
 529.600000    0.406335
 529.700000    0.406386
 529.800000    0.406437
 529.900000    0.406488
 530.000000    0.406539
 530.100000    0.406546
 530.200000    0.406552
 530.300000    0.406558
 530.400000    0.406564
 530.500000    0.406570
 530.600000    0.406576
 530.700000    0.406582
 530.800000    0.406589
 530.900000    0.406595
 531.000000    0.406601
 531.100000    0.406606
 531.200000    0.406611
 531.300000    0.406617
 531.400000    0.406622
 531.500000    0.406627
 531.600000    0.406632
 531.700000    0.406638
 531.800000    0.406643
 531.900000    0.406648
 532.000000    0.406653
 532.100000    0.406629
 532.200000    0.406605
 532.300000    0.406581
 532.400000    0.406557
 532.500000    0.406532
 532.600000    0.406508
 532.700000    0.406484
 532.800000    0.406460
 532.900000    0.406435
 533.000000    0.406411
 533.100000    0.406517
 533.200000    0.406622
 533.300000    0.406727
 533.400000    0.406833
 533.500000    0.406938
 533.600000    0.406951
 533.700000    0.406964
 533.800000    0.406978
 533.900000    0.406991
 534.000000    0.407004
 534.100000    0.407057
 534.200000    0.407111
 534.300000    0.407165
 534.400000    0.407218
 534.500000    0.407272
 534.600000    0.407418
 534.700000    0.407564
 534.800000    0.407710
 534.900000    0.407856
 535.000000    0.408002
 535.100000    0.408014
 535.200000    0.408026
 535.300000    0.408038
 535.400000    0.408050
 535.500000    0.408062
 535.600000    0.408166
 535.700000    0.408271
 535.800000    0.408375
 535.900000    0.408480
 536.000000    0.408584
 536.100000    0.408573
 536.200000    0.408563
 536.300000    0.408552
 536.400000    0.408542
 536.500000    0.408531
 536.600000    0.408521
 536.700000    0.408510
 536.800000    0.408500
 536.900000    0.408489
 537.000000    0.408478
 537.100000    0.408506
 537.200000    0.408534
 537.300000    0.407952
 537.400000    0.407371
 537.500000    0.406615
 537.600000    0.405951
 537.700000    0.405265
 537.800000    0.404578
 537.900000    0.403891
 538.000000    0.403203
 538.100000    0.402435
 538.200000    0.401666
 538.300000    0.400898
 538.400000    0.400129
 538.500000    0.399382
 538.600000    0.398635
 538.700000    0.397867
 538.800000    0.397098
 538.900000    0.396330
 539.000000    0.395561
 539.100000    0.394766
 539.200000    0.393970
 539.300000    0.393174
 539.400000    0.392377
 539.500000    0.391601
 539.600000    0.390824
 539.700000    0.390025
 539.800000    0.389226
 539.900000    0.388425
 540.000000    0.387624
 540.100000    0.386801
 540.200000    0.385978
 540.300000    0.385153
 540.400000    0.384328
 540.500000    0.383523
 540.600000    0.382631
 540.700000    0.381717
 540.800000    0.380803
 540.900000    0.379888
 541.000000    0.378973
 541.100000    0.378204
 541.200000    0.377436
 541.300000    0.376057
 541.400000    0.374677
 541.500000    0.373102
 541.600000    0.371527
 541.700000    0.369929
 541.800000    0.368332
 541.900000    0.366756
 542.000000    0.365180
 542.100000    0.363561
 542.200000    0.361941
 542.300000    0.360300
 542.400000    0.358659
 542.500000    0.357040
 542.600000    0.355502
 542.700000    0.353962
 542.800000    0.352422
 542.900000    0.350859
 543.000000    0.349295
 543.100000    0.347673
 543.200000    0.346051
 543.300000    0.344429
 543.400000    0.342808
 543.500000    0.341164
 543.600000    0.339521
 543.700000    0.337899
 543.800000    0.336278
 543.900000    0.334657
 544.000000    0.333037
 544.100000    0.331400
 544.200000    0.329763
 544.300000    0.328149
 544.400000    0.326535
 544.500000    0.324901
 544.600000    0.323267
 544.700000    0.321656
 544.800000    0.320046
 544.900000    0.318436
 545.000000    0.316827
 545.100000    0.315215
 545.200000    0.313603
 545.300000    0.312012
 545.400000    0.310422
 545.500000    0.308832
 545.600000    0.307241
 545.700000    0.305629
 545.800000    0.304017
 545.900000    0.302427
 546.000000    0.300836
 546.100000    0.299235
 546.200000    0.297633
 546.300000    0.296009
 546.400000    0.294385
 546.500000    0.292783
 546.600000    0.291180
 546.700000    0.289555
 546.800000    0.287930
 546.900000    0.286327
 547.000000    0.284723
 547.100000    0.283221
 547.200000    0.281718
 547.300000    0.280192
 547.400000    0.278664
 547.500000    0.277157
 547.600000    0.275586
 547.700000    0.274015
 547.800000    0.272443
 547.900000    0.270849
 548.000000    0.269254
 548.100000    0.267630
 548.200000    0.266006
 548.300000    0.264381
 548.400000    0.262757
 548.500000    0.261111
 548.600000    0.259465
 548.700000    0.257841
 548.800000    0.256217
 548.900000    0.254571
 549.000000    0.252925
 549.100000    0.251301
 549.200000    0.249677
 549.300000    0.248054
 549.400000    0.246430
 549.500000    0.244785
 549.600000    0.243194
 549.700000    0.241625
 549.800000    0.240055
 549.900000    0.238484
 550.000000    0.236912
 550.100000    0.235297
 550.200000    0.233682
 550.300000    0.232088
 550.400000    0.230494
 550.500000    0.228899
 550.600000    0.227304
 550.700000    0.225687
 550.800000    0.224069
 550.900000    0.222473
 551.000000    0.220876
 551.100000    0.219255
 551.200000    0.217634
 551.300000    0.215991
 551.400000    0.214348
 551.500000    0.212727
 551.600000    0.211105
 551.700000    0.209462
 551.800000    0.207819
 551.900000    0.206197
 552.000000    0.204576
 552.100000    0.202976
 552.200000    0.201376
 552.300000    0.199753
 552.400000    0.198130
 552.500000    0.196529
 552.600000    0.194927
 552.700000    0.193324
 552.800000    0.191722
 552.900000    0.190096
 553.000000    0.188471
 553.100000    0.186846
 553.200000    0.185222
 553.300000    0.183597
 553.400000    0.181972
 553.500000    0.180326
 553.600000    0.178679
 553.700000    0.177054
 553.800000    0.175429
 553.900000    0.173782
 554.000000    0.172135
 554.100000    0.170512
 554.200000    0.168889
 554.300000    0.167266
 554.400000    0.165643
 554.500000    0.163998
 554.600000    0.162389
 554.700000    0.160802
 554.800000    0.159213
 554.900000    0.157624
 555.000000    0.156034
 555.100000    0.154398
 555.200000    0.152763
 555.300000    0.151149
 555.400000    0.149534
 555.500000    0.147919
 555.600000    0.146270
 555.700000    0.144599
 555.800000    0.142928
 555.900000    0.141280
 556.000000    0.139632
 556.100000    0.137957
 556.200000    0.136283
 556.300000    0.134631
 556.400000    0.132980
 556.500000    0.131329
 556.600000    0.129709
 556.700000    0.128065
 556.800000    0.126422
 556.900000    0.124801
 557.000000    0.123179
 557.100000    0.121542
 557.200000    0.119905
 557.300000    0.118246
 557.400000    0.116588
 557.500000    0.114951
 557.600000    0.113315
 557.700000    0.111680
 557.800000    0.110044
 557.900000    0.108387
 558.000000    0.106729
 558.100000    0.105098
 558.200000    0.103466
 558.300000    0.101834
 558.400000    0.100203
 558.500000    0.098550
 558.600000    0.096896
 558.700000    0.095265
 558.800000    0.093635
 558.900000    0.091982
 559.000000    0.090329
 559.100000    0.088692
 559.200000    0.087056
 559.300000    0.085419
 559.400000    0.083783
 559.500000    0.082126
 559.600000    0.080451
 559.700000    0.078798
 559.800000    0.077147
 559.900000    0.075497
 560.000000    0.073848
 560.100000    0.072206
 560.200000    0.070564
 560.300000    0.068944
 560.400000    0.067324
 560.500000    0.065703
 560.600000    0.064082
 560.700000    0.062439
 560.800000    0.060796
 560.900000    0.059175
 561.000000    0.057554
 561.100000    0.055907
 561.200000    0.054260
 561.300000    0.052635
 561.400000    0.051010
 561.500000    0.049386
 561.600000    0.047750
 561.700000    0.046093
 561.800000    0.044438
 561.900000    0.042804
 562.000000    0.041172
 562.100000    0.040338
 562.200000    0.039504
 562.300000    0.038692
 562.400000    0.037879
 562.500000    0.037045
 562.600000    0.036212
 562.700000    0.035400
 562.800000    0.034588
 562.900000    0.033754
 563.000000    0.032920
 563.100000    0.032110
 563.200000    0.031301
 563.300000    0.030469
 563.400000    0.029637
 563.500000    0.028827
 563.600000    0.028017
 563.700000    0.027185
 563.800000    0.026353
 563.900000    0.025521
 564.000000    0.024688
 564.100000    0.023875
 564.200000    0.023062
 564.300000    0.022227
 564.400000    0.021392
 564.500000    0.020579
 564.600000    0.019771
 564.700000    0.018941
 564.800000    0.018110
 564.900000    0.017301
 565.000000    0.016492
 565.100000    0.015659
 565.200000    0.014826
 565.300000    0.013993
 565.400000    0.013160
 565.500000    0.012348
 565.600000    0.011537
 565.700000    0.010704
 565.800000    0.009870
 565.900000    0.009059
 566.000000    0.008248
 566.100000    0.007415
 566.200000    0.006583
 566.300000    0.005772
 566.400000    0.004961
 566.500000    0.004127
 566.600000    0.003293
 566.700000    0.002481
 566.800000    0.001669
 566.900000    0.000835
 567.000000    0.000000
 567.100000    0.000000
 567.200000    0.000000
 567.300000    0.000000
