# file: BP_GAIA.Euclid.pb
# instrument: Euclid
# system: AB
# xtype: wavelength
# ytype: qe
# description: Full system QE
# comment: SPV2 values from SPV02 branch of the Euclid MDB
# comment: MDB file: EUC_MDB_MISSIONCONFIGURATION-SPV02_2018-03-08T140000.00Z_01.01.xml
# comment: MDB variable: ExternalData.GAIA.TotalSystemTransmissionExpressedAsQE
# url: http://euclid.esac.esa.int/epdb/db/SPV02/
# reference: Euclid Consortium Mission Performance Document, V 2.0
# xref: 519.0 nm
# filter: BP_GAIA
# xunit: nm
 321.0    0.00000
 323.0    0.00002
 325.0    0.00046
 327.0    0.00526
 329.0    0.02390
 331.0    0.04898
 333.0    0.08185
 335.0    0.12277
 337.0    0.14695
 339.0    0.17316
 341.0    0.18345
 343.0    0.14596
 345.0    0.18281
 347.0    0.25723
 349.0    0.27736
 351.0    0.28033
 353.0    0.29140
 355.0    0.28547
 357.0    0.28084
 359.0    0.28221
 361.0    0.27695
 363.0    0.26857
 364.0    0.26310
 365.0    0.25980
 367.0    0.25087
 369.0    0.23897
 371.0    0.22771
 373.0    0.21463
 375.0    0.20324
 377.0    0.19790
 379.0    0.19448
 381.0    0.20044
 383.0    0.22009
 385.0    0.24403
 387.0    0.27541
 389.0    0.32483
 391.0    0.37507
 393.0    0.43397
 395.0    0.48619
 397.0    0.51822
 399.0    0.55545
 401.0    0.61009
 403.0    0.66496
 405.0    0.69395
 407.0    0.70697
 409.0    0.72264
 411.0    0.75939
 413.0    0.78837
 415.0    0.81350
 417.0    0.83407
 419.0    0.84165
 421.0    0.85270
 423.0    0.87281
 425.0    0.88248
 427.0    0.89082
 429.0    0.89787
 431.0    0.90944
 433.0    0.92220
 435.0    0.93078
 437.0    0.91626
 439.0    0.90245
 441.0    0.90459
 443.0    0.91773
 445.0    0.93486
 447.0    0.94993
 449.0    0.95992
 451.0    0.95575
 453.0    0.95445
 455.0    0.95370
 457.0    0.95994
 459.0    0.97229
 461.0    0.97495
 463.0    0.96672
 465.0    0.97262
 467.0    0.98424
 469.0    0.99375
 471.0    0.99315
 473.0    0.98799
 475.0    0.96649
 477.0    0.95729
 479.0    0.95337
 481.0    0.96531
 483.0    0.98620
 485.0    0.99450
 487.0    0.98732
 489.0    0.97489
 491.0    0.97656
 493.0    0.98528
 495.0    0.99030
 497.0    0.99133
 499.0    0.99376
 501.0    0.99381
 503.0    0.98915
 505.0    0.98514
 507.0    0.98679
 509.0    0.99238
 511.0    1.00000
 513.0    0.99298
 515.0    0.99570
 517.0    0.99182
 519.0    0.98794
 521.0    0.98763
 523.0    0.98585
 525.0    0.99039
 527.0    0.98502
 529.0    0.97577
 531.0    0.96247
 533.0    0.94867
 535.0    0.93654
 537.0    0.92969
 539.0    0.93510
 541.0    0.94634
 543.0    0.95001
 545.0    0.94385
 547.0    0.93997
 549.0    0.93073
 551.0    0.92957
 553.0    0.92792
 555.0    0.92320
 557.0    0.91741
 559.0    0.91652
 561.0    0.92422
 563.0    0.93177
 565.0    0.93568
 567.0    0.93824
 569.0    0.93899
 571.0    0.93873
 573.0    0.93576
 575.0    0.92787
 577.0    0.91974
 579.0    0.92136
 581.0    0.92369
 583.0    0.93069
 585.0    0.93132
 587.0    0.93703
 589.0    0.94384
 591.0    0.94106
 593.0    0.93842
 595.0    0.92781
 597.0    0.91337
 599.0    0.89806
 601.0    0.89807
 603.0    0.89545
 605.0    0.90462
 607.0    0.91512
 609.0    0.92608
 611.0    0.92919
 613.0    0.92428
 615.0    0.92023
 617.0    0.91432
 619.0    0.90184
 621.0    0.88965
 623.0    0.87590
 625.0    0.86145
 627.0    0.86135
 629.0    0.86818
 631.0    0.87975
 633.0    0.88878
 635.0    0.88848
 637.0    0.88304
 639.0    0.88025
 641.0    0.87728
 643.0    0.88203
 645.0    0.88055
 647.0    0.88415
 649.0    0.87533
 651.0    0.86393
 653.0    0.82038
 655.0    0.73353
 657.0    0.60709
 659.0    0.46594
 661.0    0.32909
 663.0    0.20746
 665.0    0.11592
 667.0    0.05296
 669.0    0.02161
 671.0    0.00936
 673.0    0.00470
 675.0    0.00279
 677.0    0.00190
 679.0    0.00144
 681.0    0.00111
 683.0    0.00079
 685.0    0.00051
 687.0    0.00028
 689.0    0.00014
 691.0    0.00007
 693.0    0.00004
 695.0    0.00003
 697.0    0.00002
 699.0    0.00001
 701.0    0.00001
 703.0    0.00001
 705.0    0.00001
 707.0    0.00001
 709.0    0.00001
 711.0    0.00001
 713.0    0.00001
 715.0    0.00001
 717.0    0.00001
 719.0    0.00000
 721.0    0.00000
 723.0    0.00001
 725.0    0.00001
 727.0    0.00000
 729.0    0.00000
 731.0    0.00000
 733.0    0.00000
 735.0    0.00000
 737.0    0.00000
 739.0    0.00000
 741.0    0.00000
 743.0    0.00000
 745.0    0.00000
 747.0    0.00001
 749.0    0.00000
 751.0    0.00001
 753.0    0.00000
 755.0    0.00000
 757.0    0.00000
 759.0    0.00000
 761.0    0.00000
 763.0    0.00000
 765.0    0.00001
 767.0    0.00000
 769.0    0.00000
 771.0    0.00000
 773.0    0.00000
 775.0    0.00000
 777.0    0.00000
 779.0    0.00000
 781.0    0.00000
 783.0    0.00000
 785.0    0.00000
 787.0    0.00000
 789.0    0.00000
 791.0    0.00001
 793.0    0.00000
 795.0    0.00000
 797.0    0.00000
 799.0    0.00000
 801.0    0.00000
 803.0    0.00000
 805.0    0.00000
 807.0    0.00000
 809.0    0.00000
 811.0    0.00000
 813.0    0.00000
 815.0    0.00000
 817.0    0.00000
 819.0    0.00000
 821.0    0.00000
 823.0    0.00000
 825.0    0.00000
 827.0    0.00000
 829.0    0.00000
 831.0    0.00000
 833.0    0.00000
 835.0    0.00000
 837.0    0.00001
 839.0    0.00000
 841.0    0.00000
 843.0    0.00000
 845.0    0.00001
 847.0    0.00000
 849.0    0.00000
 851.0    0.00003
 853.0    0.00000
 855.0    0.00001
 857.0    0.00010
 859.0    0.00006
 861.0    0.00000
 863.0    0.00000
 865.0    0.00003
 867.0    0.00004
 869.0    0.00003
 871.0    0.00000
 873.0    0.00000
 875.0    0.00007
 877.0    0.00002
 879.0    0.00003
 881.0    0.00000
 883.0    0.00006
 885.0    0.00000
 887.0    0.00002
 889.0    0.00007
 891.0    0.00005
 893.0    0.00001
 895.0    0.00000
 897.0    0.00002
 899.0    0.00000
 901.0    0.00004
 903.0    0.00002
 905.0    0.00001
 907.0    0.00001
 909.0    0.00003
 911.0    0.00000
 913.0    0.00000
 915.0    0.00000
 917.0    0.00001
 919.0    0.00003
 921.0    0.00003
 923.0    0.00001
 925.0    0.00001
 927.0    0.00001
 929.0    0.00003
 931.0    0.00000
 933.0    0.00003
 935.0    0.00001
 937.0    0.00000
 939.0    0.00001
 941.0    0.00000
 943.0    0.00001
 945.0    0.00001
 947.0    0.00000
 949.0    0.00002
 951.0    0.00002
 953.0    0.00000
 955.0    0.00000
 957.0    0.00000
 959.0    0.00000
 961.0    0.00000
 963.0    0.00000
 965.0    0.00001
 967.0    0.00000
 969.0    0.00000
 971.0    0.00000
 973.0    0.00002
 975.0    0.00000
 977.0    0.00000
 979.0    0.00000
 981.0    0.00000
 983.0    0.00000
 985.0    0.00000
 987.0    0.00000
 989.0    0.00000
 991.0    0.00000
 993.0    0.00001
 995.0    0.00000
 997.0    0.00000
 999.0    0.00000
1003.0    0.00001
1008.0    0.00000
1013.0    0.00000
1018.0    0.00000
1023.0    0.00000
1028.0    0.00000
1033.0    0.00000
1038.0    0.00000
1043.0    0.00000
1048.0    0.00001
1053.0    0.00001
1058.0    0.00004
1063.0    0.00021
1068.0    0.00080
1073.0    0.00061
1078.0    0.00054
1083.0    0.00035
1088.0    0.00026
1093.0    0.00016
1098.0    0.00009
1103.0    0.00000
