# file: g_DECam.Euclid.pb
# system: AB
# comment: SPV2 values from SPV02 branch of the Euclid MDB
# comment: table Blanco-DECam.g-TotalTransmissionsAsOfMarch2017.dat
# filter: g_DECam
# instrument: Euclid
# description: Full system QE
# url: http://euclid.esac.esa.int/epdb/db/SPV02/
# xref: 4840.0 Angstrom
# xtype: wavelength
# ytype: qe
# reference: Euclid Consortium Mission Performance Document, V 2.0
# xunit: Angstrom
3840.0    0.000
3850.0    0.001
3860.0    0.001
3870.0    0.001
3880.0    0.001
3890.0    0.001
3900.0    0.001
3910.0    0.002
3920.0    0.002
3930.0    0.003
3940.0    0.004
3950.0    0.012
3960.0    0.044
3970.0    0.086
3980.0    0.120
3990.0    0.124
4000.0    0.134
4010.0    0.140
4020.0    0.147
4030.0    0.150
4040.0    0.151
4050.0    0.153
4060.0    0.156
4070.0    0.159
4080.0    0.162
4090.0    0.164
4100.0    0.166
4110.0    0.168
4120.0    0.171
4130.0    0.174
4140.0    0.176
4150.0    0.178
4160.0    0.184
4170.0    0.186
4180.0    0.188
4190.0    0.190
4200.0    0.191
4210.0    0.192
4220.0    0.194
4230.0    0.197
4240.0    0.202
4250.0    0.204
4260.0    0.207
4270.0    0.209
4280.0    0.212
4290.0    0.215
4300.0    0.220
4310.0    0.221
4320.0    0.224
4330.0    0.224
4340.0    0.228
4350.0    0.231
4360.0    0.233
4370.0    0.233
4380.0    0.239
4390.0    0.243
4400.0    0.243
4410.0    0.248
4420.0    0.249
4430.0    0.251
4440.0    0.253
4450.0    0.255
4460.0    0.257
4470.0    0.259
4480.0    0.261
4490.0    0.262
4500.0    0.263
4510.0    0.266
4520.0    0.267
4530.0    0.270
4540.0    0.272
4550.0    0.274
4560.0    0.274
4570.0    0.276
4580.0    0.277
4590.0    0.278
4600.0    0.281
4610.0    0.282
4620.0    0.285
4630.0    0.287
4640.0    0.289
4650.0    0.290
4660.0    0.291
4670.0    0.293
4680.0    0.293
4690.0    0.293
4700.0    0.294
4710.0    0.299
4720.0    0.297
4730.0    0.299
4740.0    0.301
4750.0    0.302
4760.0    0.305
4770.0    0.305
4780.0    0.306
4790.0    0.306
4800.0    0.307
4810.0    0.310
4820.0    0.311
4830.0    0.313
4840.0    0.314
4850.0    0.314
4860.0    0.313
4870.0    0.315
4880.0    0.317
4890.0    0.319
4900.0    0.320
4910.0    0.323
4920.0    0.323
4930.0    0.323
4940.0    0.323
4950.0    0.323
4960.0    0.325
4970.0    0.326
4980.0    0.329
4990.0    0.331
5000.0    0.330
5010.0    0.332
5020.0    0.333
5030.0    0.335
5040.0    0.335
5050.0    0.336
5060.0    0.337
5070.0    0.338
5080.0    0.340
5090.0    0.341
5100.0    0.343
5110.0    0.343
5120.0    0.342
5130.0    0.342
5140.0    0.343
5150.0    0.346
5160.0    0.347
5170.0    0.348
5180.0    0.348
5190.0    0.349
5200.0    0.350
5210.0    0.352
5220.0    0.354
5230.0    0.356
5240.0    0.358
5250.0    0.359
5260.0    0.360
5270.0    0.360
5280.0    0.360
5290.0    0.360
5300.0    0.361
5310.0    0.361
5320.0    0.363
5330.0    0.364
5340.0    0.365
5350.0    0.367
5360.0    0.369
5370.0    0.369
5380.0    0.368
5390.0    0.365
5400.0    0.365
5410.0    0.362
5420.0    0.367
5430.0    0.372
5440.0    0.376
5450.0    0.323
5460.0    0.325
5470.0    0.243
5480.0    0.140
5490.0    0.063
5500.0    0.065
5510.0    0.013
5520.0    0.006
5530.0    0.003
5540.0    0.002
5550.0    0.003
5560.0    0.001
5570.0    0.000
5580.0    0.000
5590.0    0.000
5600.0    0.000
5610.0    0.000
5620.0    0.000
5630.0    0.000
5640.0    0.000
5650.0    0.000
5660.0    0.000
5670.0    0.000
5680.0    0.000
5690.0    0.000
5700.0    0.000
5710.0    0.000
5720.0    0.000
5730.0    0.000
5740.0    0.000
5750.0    0.000
5760.0    0.000
5770.0    0.000
5780.0    0.000
5790.0    0.000
5800.0    0.000
5810.0    0.000
5820.0    0.000
5830.0    0.000
5840.0    0.000
5850.0    0.000
5860.0    0.000
5870.0    0.000
5880.0    0.000
5890.0    0.000
5900.0    0.000
5910.0    0.000
5920.0    0.000
5930.0    0.000
5940.0    0.000
5950.0    0.000
5960.0    0.000
5970.0    0.000
5980.0    0.000
5990.0    0.000
6000.0    0.000
6010.0    0.000
6020.0    0.000
6030.0    0.000
6040.0    0.000
6050.0    0.000
6060.0    0.000
6070.0    0.000
6080.0    0.000
6090.0    0.000
6100.0    0.000
6110.0    0.000
6120.0    0.000
6130.0    0.000
6140.0    0.000
6150.0    0.000
6160.0    0.000
6170.0    0.000
6180.0    0.000
6190.0    0.000
6200.0    0.000
6210.0    0.000
6220.0    0.000
6230.0    0.000
6240.0    0.000
6250.0    0.000
6260.0    0.000
6270.0    0.000
6280.0    0.000
6290.0    0.000
6300.0    0.000
6310.0    0.000
6320.0    0.000
6330.0    0.000
6340.0    0.000
6350.0    0.000
6360.0    0.000
6370.0    0.000
6380.0    0.000
6390.0    0.000
6400.0    0.000
6410.0    0.000
6420.0    0.000
6430.0    0.000
6440.0    0.000
6450.0    0.000
6460.0    0.000
6470.0    0.000
6480.0    0.000
6490.0    0.000
6500.0    0.000
6510.0    0.000
6520.0    0.000
6530.0    0.000
6540.0    0.000
6550.0    0.000
6560.0    0.000
6570.0    0.000
6580.0    0.000
6590.0    0.000
6600.0    0.000
6610.0    0.000
6620.0    0.000
6630.0    0.000
6640.0    0.000
6650.0    0.000
6660.0    0.000
6670.0    0.000
6680.0    0.000
6690.0    0.000
6700.0    0.000
6710.0    0.000
6720.0    0.000
6730.0    0.000
6740.0    0.000
6750.0    0.000
6760.0    0.000
6770.0    0.000
6780.0    0.000
6790.0    0.000
6800.0    0.000
6810.0    0.000
6820.0    0.000
6830.0    0.000
6840.0    0.000
6850.0    0.000
6860.0    0.000
6870.0    0.000
6880.0    0.000
6890.0    0.000
6900.0    0.000
6910.0    0.000
6920.0    0.000
6930.0    0.000
6940.0    0.000
6950.0    0.000
6960.0    0.000
6970.0    0.000
6980.0    0.000
6990.0    0.000
7000.0    0.000
7010.0    0.000
7020.0    0.000
7030.0    0.000
7040.0    0.000
7050.0    0.000
7060.0    0.000
7070.0    0.000
7080.0    0.000
7090.0    0.000
7100.0    0.000
7110.0    0.000
7120.0    0.000
7130.0    0.000
7140.0    0.000
7150.0    0.000
7160.0    0.000
7170.0    0.000
7180.0    0.000
7190.0    0.000
7200.0    0.000
7210.0    0.000
7220.0    0.000
7230.0    0.000
7240.0    0.000
7250.0    0.000
7260.0    0.000
7270.0    0.000
7280.0    0.000
7290.0    0.000
7300.0    0.000
7310.0    0.000
7320.0    0.000
7330.0    0.000
7340.0    0.000
7350.0    0.000
7360.0    0.000
7370.0    0.000
7380.0    0.000
7390.0    0.000
7400.0    0.000
7410.0    0.000
7420.0    0.000
7430.0    0.000
7440.0    0.000
7450.0    0.000
7460.0    0.000
7470.0    0.000
7480.0    0.000
7490.0    0.000
7500.0    0.000
7510.0    0.000
7520.0    0.000
7530.0    0.000
7540.0    0.000
7550.0    0.000
7560.0    0.000
7570.0    0.000
7580.0    0.000
7590.0    0.000
7600.0    0.000
7610.0    0.000
7620.0    0.000
7630.0    0.000
7640.0    0.000
7650.0    0.000
7660.0    0.000
7670.0    0.000
7680.0    0.000
7690.0    0.000
7700.0    0.000
7710.0    0.000
7720.0    0.000
7730.0    0.000
7740.0    0.000
7750.0    0.000
7760.0    0.000
7770.0    0.000
7780.0    0.000
7790.0    0.000
7800.0    0.000
7810.0    0.000
7820.0    0.000
7830.0    0.000
7840.0    0.001
7850.0    0.001
7860.0    0.001
7870.0    0.001
7880.0    0.001
7890.0    0.001
7900.0    0.001
7910.0    0.001
7920.0    0.001
7930.0    0.001
7940.0    0.001
7950.0    0.001
7960.0    0.001
7970.0    0.001
7980.0    0.001
7990.0    0.001
8000.0    0.001
8010.0    0.001
8020.0    0.001
8030.0    0.001
8040.0    0.001
8050.0    0.001
8060.0    0.001
8070.0    0.001
8080.0    0.001
8090.0    0.001
8100.0    0.001
8110.0    0.001
8120.0    0.001
8130.0    0.001
8140.0    0.001
8150.0    0.001
8160.0    0.001
8170.0    0.001
8180.0    0.001
8190.0    0.001
8200.0    0.001
8210.0    0.001
8220.0    0.001
8230.0    0.001
8240.0    0.001
8250.0    0.001
8260.0    0.001
8270.0    0.001
8280.0    0.001
8290.0    0.001
8300.0    0.001
8310.0    0.001
8320.0    0.001
8330.0    0.001
8340.0    0.001
8350.0    0.001
8360.0    0.001
8370.0    0.001
8380.0    0.001
8390.0    0.001
8400.0    0.001
8410.0    0.001
8420.0    0.001
8430.0    0.001
8440.0    0.001
8450.0    0.001
8460.0    0.001
8470.0    0.001
8480.0    0.001
8490.0    0.001
8500.0    0.001
8510.0    0.001
8520.0    0.001
8530.0    0.001
8540.0    0.001
8550.0    0.001
8560.0    0.001
8570.0    0.001
8580.0    0.001
8590.0    0.001
8600.0    0.001
8610.0    0.001
8620.0    0.001
8630.0    0.001
8640.0    0.001
8650.0    0.001
8660.0    0.001
8670.0    0.001
8680.0    0.001
8690.0    0.001
8700.0    0.001
8710.0    0.001
8720.0    0.001
8730.0    0.001
8740.0    0.001
8750.0    0.001
8760.0    0.001
8770.0    0.001
8780.0    0.001
8790.0    0.001
8800.0    0.001
8810.0    0.001
8820.0    0.001
8830.0    0.001
8840.0    0.001
8850.0    0.001
8860.0    0.001
8870.0    0.001
8880.0    0.001
8890.0    0.001
8900.0    0.001
8910.0    0.001
8920.0    0.001
8930.0    0.001
8940.0    0.001
8950.0    0.001
8960.0    0.001
8970.0    0.001
8980.0    0.001
8990.0    0.001
9000.0    0.001
9010.0    0.001
9020.0    0.001
9030.0    0.001
9040.0    0.001
9050.0    0.001
9060.0    0.001
9070.0    0.001
9080.0    0.001
9090.0    0.001
9100.0    0.001
9110.0    0.001
9120.0    0.001
9130.0    0.001
9140.0    0.001
9150.0    0.001
9160.0    0.001
9170.0    0.001
9180.0    0.001
9190.0    0.001
9200.0    0.001
9210.0    0.001
9220.0    0.001
9230.0    0.001
9240.0    0.001
9250.0    0.001
9260.0    0.001
9270.0    0.001
9280.0    0.001
9290.0    0.001
9300.0    0.000
9310.0    0.000
9320.0    0.000
9330.0    0.000
9340.0    0.000
9350.0    0.000
9360.0    0.000
9370.0    0.000
9380.0    0.000
9390.0    0.000
9400.0    0.000
9410.0    0.000
9420.0    0.000
9430.0    0.000
9440.0    0.000
9450.0    0.000
9460.0    0.000
9470.0    0.000
9480.0    0.000
9490.0    0.000
9500.0    0.000
9510.0    0.000
9520.0    0.000
9530.0    0.000
9540.0    0.000
9550.0    0.000
9560.0    0.000
9570.0    0.000
9580.0    0.000
9590.0    0.000
9600.0    0.000
9610.0    0.000
9620.0    0.000
9630.0    0.000
9640.0    0.000
9650.0    0.000
9660.0    0.000
9670.0    0.000
9680.0    0.001
9690.0    0.001
9700.0    0.001
9710.0    0.001
9720.0    0.001
9730.0    0.001
9740.0    0.000
