# file: G_GAIA.Euclid.pb
# instrument: Euclid
# system: AB
# xtype: wavelength
# ytype: qe
# description: Full system QE
# comment: SPV2 values from SPV02 branch of the Euclid MDB
# comment: MDB file: EUC_MDB_MISSIONCONFIGURATION-SPV02_2018-03-08T140000.00Z_01.01.xml
# comment: MDB variable: ExternalData.GAIA.TotalSystemTransmissionExpressedAsQE
# url: http://euclid.esac.esa.int/epdb/db/SPV02/
# reference: Euclid Consortium Mission Performance Document, V 2.0
# xref: 642.0 nm
# filter: G_GAIA
# xunit: nm
 321.0    0.00000
 323.0    0.00002
 325.0    0.00032
 327.0    0.00206
 329.0    0.00674
 331.0    0.01421
 333.0    0.02299
 335.0    0.03274
 337.0    0.04180
 339.0    0.05050
 341.0    0.05958
 343.0    0.06760
 345.0    0.07475
 347.0    0.08025
 349.0    0.08407
 351.0    0.08710
 353.0    0.08854
 355.0    0.08937
 357.0    0.08917
 359.0    0.08863
 361.0    0.08770
 363.0    0.08640
 364.0    0.08539
 365.0    0.08490
 367.0    0.08338
 369.0    0.08183
 371.0    0.08071
 373.0    0.07939
 375.0    0.07925
 377.0    0.08017
 379.0    0.08295
 381.0    0.09014
 383.0    0.10242
 385.0    0.12071
 387.0    0.14525
 389.0    0.17621
 391.0    0.21093
 393.0    0.24760
 395.0    0.28401
 397.0    0.31790
 399.0    0.35028
 401.0    0.37911
 403.0    0.40657
 405.0    0.43172
 407.0    0.45596
 409.0    0.47663
 411.0    0.49884
 413.0    0.51685
 415.0    0.53508
 417.0    0.55286
 419.0    0.57075
 421.0    0.58594
 423.0    0.60022
 425.0    0.61246
 427.0    0.62663
 429.0    0.64060
 431.0    0.65414
 433.0    0.66276
 435.0    0.67603
 437.0    0.68729
 439.0    0.69679
 441.0    0.70653
 443.0    0.71840
 445.0    0.72809
 447.0    0.73537
 449.0    0.74717
 451.0    0.75418
 453.0    0.76463
 455.0    0.77340
 457.0    0.77965
 459.0    0.78716
 461.0    0.79645
 463.0    0.80245
 465.0    0.81254
 467.0    0.81819
 469.0    0.82394
 471.0    0.82925
 473.0    0.84061
 475.0    0.84274
 477.0    0.85333
 479.0    0.85696
 481.0    0.86122
 483.0    0.86653
 485.0    0.87126
 487.0    0.87737
 489.0    0.88165
 491.0    0.88667
 493.0    0.89177
 495.0    0.89744
 497.0    0.90206
 499.0    0.90570
 501.0    0.90884
 503.0    0.91310
 505.0    0.91874
 507.0    0.92255
 509.0    0.92504
 511.0    0.93220
 513.0    0.92966
 515.0    0.93692
 517.0    0.93904
 519.0    0.94380
 521.0    0.94905
 523.0    0.94875
 525.0    0.95255
 527.0    0.95294
 529.0    0.95783
 531.0    0.96155
 533.0    0.96506
 535.0    0.96751
 537.0    0.96849
 539.0    0.97221
 541.0    0.97508
 543.0    0.97453
 545.0    0.97359
 547.0    0.97959
 549.0    0.97824
 551.0    0.98074
 553.0    0.98375
 555.0    0.98665
 557.0    0.98664
 559.0    0.98437
 561.0    0.98624
 563.0    0.98833
 565.0    0.98990
 567.0    0.99106
 569.0    0.98943
 571.0    0.98933
 573.0    0.99066
 575.0    0.99151
 577.0    0.99099
 579.0    0.99326
 581.0    0.99219
 583.0    0.99470
 585.0    0.99012
 587.0    0.99285
 589.0    0.99692
 591.0    0.99293
 593.0    0.99485
 595.0    0.99569
 597.0    0.99554
 599.0    0.99294
 601.0    1.00000
 603.0    0.99307
 605.0    0.99219
 607.0    0.99008
 609.0    0.99270
 611.0    0.99335
 613.0    0.99105
 615.0    0.99105
 617.0    0.99054
 619.0    0.98695
 621.0    0.98843
 623.0    0.98941
 625.0    0.98396
 627.0    0.98384
 629.0    0.98119
 631.0    0.98104
 633.0    0.98303
 635.0    0.98035
 637.0    0.97706
 639.0    0.97628
 641.0    0.97301
 643.0    0.97639
 645.0    0.97148
 647.0    0.97392
 649.0    0.96734
 651.0    0.96956
 653.0    0.96640
 655.0    0.96363
 657.0    0.96081
 659.0    0.95974
 661.0    0.95761
 663.0    0.95226
 665.0    0.95379
 667.0    0.95297
 669.0    0.94996
 671.0    0.94753
 673.0    0.94851
 675.0    0.94479
 677.0    0.94073
 679.0    0.93799
 681.0    0.93725
 683.0    0.93209
 685.0    0.93111
 687.0    0.92485
 689.0    0.92436
 691.0    0.92005
 693.0    0.91720
 695.0    0.91520
 697.0    0.91514
 699.0    0.91215
 701.0    0.91082
 703.0    0.90317
 705.0    0.89864
 707.0    0.89767
 709.0    0.89363
 711.0    0.89302
 713.0    0.88935
 715.0    0.88683
 717.0    0.88031
 719.0    0.87501
 721.0    0.87413
 723.0    0.86862
 725.0    0.86374
 727.0    0.86229
 729.0    0.85529
 731.0    0.85239
 733.0    0.85017
 735.0    0.84407
 737.0    0.84036
 739.0    0.83474
 741.0    0.83271
 743.0    0.82396
 745.0    0.82131
 747.0    0.81715
 749.0    0.81287
 751.0    0.80576
 753.0    0.80383
 755.0    0.79753
 757.0    0.79245
 759.0    0.78821
 761.0    0.78022
 763.0    0.77765
 765.0    0.77186
 767.0    0.76340
 769.0    0.75905
 771.0    0.75415
 773.0    0.74861
 775.0    0.74103
 777.0    0.73193
 779.0    0.73239
 781.0    0.72409
 783.0    0.72061
 785.0    0.71003
 787.0    0.70440
 789.0    0.69850
 791.0    0.69237
 793.0    0.68701
 795.0    0.67976
 797.0    0.67395
 799.0    0.66485
 801.0    0.65804
 803.0    0.65297
 805.0    0.64406
 807.0    0.63765
 809.0    0.63062
 811.0    0.62574
 813.0    0.62033
 815.0    0.61241
 817.0    0.60321
 819.0    0.59619
 821.0    0.58886
 823.0    0.58248
 825.0    0.57545
 827.0    0.56845
 829.0    0.55905
 831.0    0.55218
 833.0    0.54572
 835.0    0.53958
 837.0    0.53000
 839.0    0.52332
 841.0    0.51535
 843.0    0.50898
 845.0    0.50078
 847.0    0.49393
 849.0    0.48644
 851.0    0.47857
 853.0    0.46947
 855.0    0.46434
 857.0    0.45792
 859.0    0.44991
 861.0    0.43950
 863.0    0.43421
 865.0    0.42597
 867.0    0.41802
 869.0    0.41297
 871.0    0.40313
 873.0    0.39898
 875.0    0.39030
 877.0    0.38350
 879.0    0.37562
 881.0    0.36895
 883.0    0.36158
 885.0    0.35536
 887.0    0.34755
 889.0    0.34232
 891.0    0.33445
 893.0    0.32520
 895.0    0.31909
 897.0    0.31228
 899.0    0.30516
 901.0    0.29890
 903.0    0.29229
 905.0    0.28455
 907.0    0.27861
 909.0    0.27309
 911.0    0.26546
 913.0    0.25777
 915.0    0.25224
 917.0    0.24690
 919.0    0.23962
 921.0    0.23343
 923.0    0.22709
 925.0    0.22065
 927.0    0.21507
 929.0    0.20854
 931.0    0.20293
 933.0    0.19741
 935.0    0.19183
 937.0    0.18611
 939.0    0.17962
 941.0    0.17434
 943.0    0.16882
 945.0    0.16357
 947.0    0.15804
 949.0    0.15343
 951.0    0.14784
 953.0    0.14318
 955.0    0.13768
 957.0    0.13290
 959.0    0.12822
 961.0    0.12351
 963.0    0.11884
 965.0    0.11431
 967.0    0.11012
 969.0    0.10563
 971.0    0.10100
 973.0    0.09709
 975.0    0.09323
 977.0    0.08927
 979.0    0.08513
 981.0    0.08117
 983.0    0.07741
 985.0    0.07391
 987.0    0.07038
 989.0    0.06699
 991.0    0.06375
 993.0    0.06039
 995.0    0.05703
 997.0    0.05403
 999.0    0.05141
1003.0    0.04629
1008.0    0.03983
1013.0    0.03367
1018.0    0.02842
1023.0    0.02345
1028.0    0.01940
1033.0    0.01569
1038.0    0.01255
1043.0    0.00988
1048.0    0.00755
1053.0    0.00569
1058.0    0.00414
1063.0    0.00299
1068.0    0.00214
1073.0    0.00156
1078.0    0.00112
1083.0    0.00078
1088.0    0.00050
1093.0    0.00030
1098.0    0.00018
1103.0    0.00000
