# file: g_JPCam.Euclid.pb
# system: AB
# comment: SPV2 values from SPV02 branch of the Euclid MDB
# comment: table JST-JPCam.g-TotalTransmissionsAsOfMarch2017.dat
# filter: g_JPCam
# instrument: Euclid
# description: Full system QE
# url: http://euclid.esac.esa.int/epdb/db/SPV02/
# xref: 4788.0 Angstrom
# xtype: wavelength
# ytype: qe
# reference: Euclid Consortium Mission Performance Document, V 2.0
# xunit: Angstrom
3823.0    0.0000
3824.0    0.0001
3825.0    0.0001
3826.0    0.0001
3827.0    0.0001
3828.0    0.0001
3829.0    0.0001
3830.0    0.0001
3831.0    0.0001
3832.0    0.0001
3833.0    0.0001
3834.0    0.0001
3835.0    0.0001
3836.0    0.0001
3837.0    0.0002
3838.0    0.0002
3839.0    0.0002
3840.0    0.0002
3841.0    0.0002
3842.0    0.0003
3843.0    0.0003
3844.0    0.0003
3845.0    0.0004
3846.0    0.0004
3847.0    0.0005
3848.0    0.0006
3849.0    0.0006
3850.0    0.0007
3851.0    0.0008
3852.0    0.0009
3853.0    0.0010
3854.0    0.0011
3855.0    0.0013
3856.0    0.0014
3857.0    0.0016
3858.0    0.0018
3859.0    0.0020
3860.0    0.0022
3861.0    0.0025
3862.0    0.0027
3863.0    0.0031
3864.0    0.0034
3865.0    0.0037
3866.0    0.0041
3867.0    0.0046
3868.0    0.0050
3869.0    0.0055
3870.0    0.0060
3871.0    0.0067
3872.0    0.0073
3873.0    0.0079
3874.0    0.0086
3875.0    0.0094
3876.0    0.0102
3877.0    0.0110
3878.0    0.0119
3879.0    0.0129
3880.0    0.0140
3881.0    0.0151
3882.0    0.0162
3883.0    0.0174
3884.0    0.0187
3885.0    0.0200
3886.0    0.0213
3887.0    0.0228
3888.0    0.0243
3889.0    0.0258
3890.0    0.0274
3891.0    0.0291
3892.0    0.0308
3893.0    0.0326
3894.0    0.0345
3895.0    0.0364
3896.0    0.0384
3897.0    0.0403
3898.0    0.0423
3899.0    0.0444
3900.0    0.0465
3901.0    0.0487
3902.0    0.0509
3903.0    0.0532
3904.0    0.0554
3905.0    0.0579
3906.0    0.0604
3907.0    0.0628
3908.0    0.0652
3909.0    0.0677
3910.0    0.0702
3911.0    0.0727
3912.0    0.0752
3913.0    0.0779
3914.0    0.0806
3915.0    0.0832
3916.0    0.0858
3917.0    0.0886
3918.0    0.0915
3919.0    0.0942
3920.0    0.0969
3921.0    0.0998
3922.0    0.1026
3923.0    0.1053
3924.0    0.1080
3925.0    0.1107
3926.0    0.1135
3927.0    0.1164
3928.0    0.1193
3929.0    0.1220
3930.0    0.1247
3931.0    0.1277
3932.0    0.1306
3933.0    0.1335
3934.0    0.1363
3935.0    0.1392
3936.0    0.1420
3937.0    0.1448
3938.0    0.1476
3939.0    0.1505
3940.0    0.1534
3941.0    0.1561
3942.0    0.1587
3943.0    0.1616
3944.0    0.1645
3945.0    0.1671
3946.0    0.1698
3947.0    0.1725
3948.0    0.1752
3949.0    0.1777
3950.0    0.1802
3951.0    0.1827
3952.0    0.1852
3953.0    0.1876
3954.0    0.1901
3955.0    0.1924
3956.0    0.1947
3957.0    0.1971
3958.0    0.1994
3959.0    0.2016
3960.0    0.2039
3961.0    0.2061
3962.0    0.2084
3963.0    0.2103
3964.0    0.2123
3965.0    0.2144
3966.0    0.2165
3967.0    0.2183
3968.0    0.2201
3969.0    0.2219
3970.0    0.2237
3971.0    0.2254
3972.0    0.2271
3973.0    0.2289
3974.0    0.2307
3975.0    0.2321
3976.0    0.2336
3977.0    0.2350
3978.0    0.2365
3979.0    0.2379
3980.0    0.2392
3981.0    0.2405
3982.0    0.2418
3983.0    0.2430
3984.0    0.2443
3985.0    0.2454
3986.0    0.2465
3987.0    0.2477
3988.0    0.2490
3989.0    0.2499
3990.0    0.2509
3991.0    0.2519
3992.0    0.2530
3993.0    0.2540
3994.0    0.2549
3995.0    0.2559
3996.0    0.2568
3997.0    0.2577
3998.0    0.2586
3999.0    0.2595
4000.0    0.2603
4001.0    0.2612
4002.0    0.2621
4003.0    0.2629
4004.0    0.2636
4005.0    0.2644
4006.0    0.2652
4007.0    0.2659
4008.0    0.2667
4009.0    0.2675
4010.0    0.2683
4011.0    0.2691
4012.0    0.2699
4013.0    0.2706
4014.0    0.2713
4015.0    0.2722
4016.0    0.2731
4017.0    0.2740
4018.0    0.2748
4019.0    0.2756
4020.0    0.2764
4021.0    0.2771
4022.0    0.2779
4023.0    0.2788
4024.0    0.2797
4025.0    0.2805
4026.0    0.2813
4027.0    0.2821
4028.0    0.2830
4029.0    0.2839
4030.0    0.2848
4031.0    0.2856
4032.0    0.2865
4033.0    0.2873
4034.0    0.2882
4035.0    0.2891
4036.0    0.2900
4037.0    0.2910
4038.0    0.2920
4039.0    0.2929
4040.0    0.2937
4041.0    0.2947
4042.0    0.2956
4043.0    0.2965
4044.0    0.2975
4045.0    0.2984
4046.0    0.2994
4047.0    0.3003
4048.0    0.3012
4049.0    0.3021
4050.0    0.3030
4051.0    0.3039
4052.0    0.3049
4053.0    0.3056
4054.0    0.3064
4055.0    0.3073
4056.0    0.3082
4057.0    0.3091
4058.0    0.3100
4059.0    0.3108
4060.0    0.3115
4061.0    0.3123
4062.0    0.3131
4063.0    0.3137
4064.0    0.3144
4065.0    0.3152
4066.0    0.3159
4067.0    0.3166
4068.0    0.3173
4069.0    0.3179
4070.0    0.3184
4071.0    0.3190
4072.0    0.3195
4073.0    0.3201
4074.0    0.3208
4075.0    0.3212
4076.0    0.3216
4077.0    0.3221
4078.0    0.3225
4079.0    0.3230
4080.0    0.3234
4081.0    0.3238
4082.0    0.3242
4083.0    0.3246
4084.0    0.3250
4085.0    0.3252
4086.0    0.3254
4087.0    0.3256
4088.0    0.3259
4089.0    0.3263
4090.0    0.3267
4091.0    0.3268
4092.0    0.3269
4093.0    0.3271
4094.0    0.3273
4095.0    0.3276
4096.0    0.3278
4097.0    0.3280
4098.0    0.3282
4099.0    0.3283
4100.0    0.3284
4101.0    0.3284
4102.0    0.3284
4103.0    0.3285
4104.0    0.3286
4105.0    0.3286
4106.0    0.3286
4107.0    0.3289
4108.0    0.3291
4109.0    0.3291
4110.0    0.3292
4111.0    0.3292
4112.0    0.3293
4113.0    0.3294
4114.0    0.3295
4115.0    0.3297
4116.0    0.3299
4117.0    0.3301
4118.0    0.3303
4119.0    0.3305
4120.0    0.3306
4121.0    0.3309
4122.0    0.3312
4123.0    0.3315
4124.0    0.3317
4125.0    0.3321
4126.0    0.3324
4127.0    0.3328
4128.0    0.3333
4129.0    0.3336
4130.0    0.3339
4131.0    0.3343
4132.0    0.3347
4133.0    0.3352
4134.0    0.3358
4135.0    0.3362
4136.0    0.3366
4137.0    0.3373
4138.0    0.3380
4139.0    0.3386
4140.0    0.3391
4141.0    0.3396
4142.0    0.3402
4143.0    0.3408
4144.0    0.3415
4145.0    0.3421
4146.0    0.3428
4147.0    0.3434
4148.0    0.3440
4149.0    0.3447
4150.0    0.3455
4151.0    0.3462
4152.0    0.3470
4153.0    0.3477
4154.0    0.3484
4155.0    0.3493
4156.0    0.3501
4157.0    0.3508
4158.0    0.3515
4159.0    0.3521
4160.0    0.3528
4161.0    0.3536
4162.0    0.3544
4163.0    0.3550
4164.0    0.3556
4165.0    0.3563
4166.0    0.3570
4167.0    0.3576
4168.0    0.3582
4169.0    0.3588
4170.0    0.3594
4171.0    0.3599
4172.0    0.3604
4173.0    0.3610
4174.0    0.3615
4175.0    0.3619
4176.0    0.3624
4177.0    0.3628
4178.0    0.3631
4179.0    0.3635
4180.0    0.3638
4181.0    0.3641
4182.0    0.3645
4183.0    0.3648
4184.0    0.3651
4185.0    0.3653
4186.0    0.3655
4187.0    0.3657
4188.0    0.3659
4189.0    0.3660
4190.0    0.3661
4191.0    0.3662
4192.0    0.3662
4193.0    0.3663
4194.0    0.3663
4195.0    0.3663
4196.0    0.3662
4197.0    0.3663
4198.0    0.3663
4199.0    0.3662
4200.0    0.3660
4201.0    0.3659
4202.0    0.3659
4203.0    0.3658
4204.0    0.3658
4205.0    0.3657
4206.0    0.3656
4207.0    0.3655
4208.0    0.3654
4209.0    0.3653
4210.0    0.3652
4211.0    0.3651
4212.0    0.3650
4213.0    0.3651
4214.0    0.3652
4215.0    0.3650
4216.0    0.3648
4217.0    0.3651
4218.0    0.3653
4219.0    0.3653
4220.0    0.3653
4221.0    0.3655
4222.0    0.3657
4223.0    0.3657
4224.0    0.3657
4225.0    0.3660
4226.0    0.3662
4227.0    0.3664
4228.0    0.3667
4229.0    0.3669
4230.0    0.3671
4231.0    0.3675
4232.0    0.3678
4233.0    0.3683
4234.0    0.3688
4235.0    0.3691
4236.0    0.3694
4237.0    0.3700
4238.0    0.3706
4239.0    0.3711
4240.0    0.3716
4241.0    0.3721
4242.0    0.3727
4243.0    0.3733
4244.0    0.3740
4245.0    0.3746
4246.0    0.3752
4247.0    0.3759
4248.0    0.3767
4249.0    0.3773
4250.0    0.3780
4251.0    0.3788
4252.0    0.3797
4253.0    0.3804
4254.0    0.3810
4255.0    0.3818
4256.0    0.3825
4257.0    0.3834
4258.0    0.3842
4259.0    0.3850
4260.0    0.3858
4261.0    0.3865
4262.0    0.3872
4263.0    0.3880
4264.0    0.3887
4265.0    0.3894
4266.0    0.3901
4267.0    0.3909
4268.0    0.3916
4269.0    0.3922
4270.0    0.3928
4271.0    0.3935
4272.0    0.3941
4273.0    0.3948
4274.0    0.3955
4275.0    0.3960
4276.0    0.3965
4277.0    0.3970
4278.0    0.3974
4279.0    0.3979
4280.0    0.3983
4281.0    0.3987
4282.0    0.3990
4283.0    0.3993
4284.0    0.3996
4285.0    0.3998
4286.0    0.4001
4287.0    0.4003
4288.0    0.4005
4289.0    0.4007
4290.0    0.4009
4291.0    0.4009
4292.0    0.4010
4293.0    0.4011
4294.0    0.4012
4295.0    0.4012
4296.0    0.4013
4297.0    0.4012
4298.0    0.4011
4299.0    0.4010
4300.0    0.4009
4301.0    0.4007
4302.0    0.4006
4303.0    0.4006
4304.0    0.4006
4305.0    0.4004
4306.0    0.4003
4307.0    0.4002
4308.0    0.4000
4309.0    0.3998
4310.0    0.3996
4311.0    0.3995
4312.0    0.3993
4313.0    0.3992
4314.0    0.3991
4315.0    0.3989
4316.0    0.3988
4317.0    0.3988
4318.0    0.3988
4319.0    0.3986
4320.0    0.3984
4321.0    0.3984
4322.0    0.3984
4323.0    0.3984
4324.0    0.3984
4325.0    0.3984
4326.0    0.3985
4327.0    0.3986
4328.0    0.3987
4329.0    0.3989
4330.0    0.3990
4331.0    0.3991
4332.0    0.3992
4333.0    0.3995
4334.0    0.3998
4335.0    0.4001
4336.0    0.4003
4337.0    0.4006
4338.0    0.4008
4339.0    0.4014
4340.0    0.4019
4341.0    0.4023
4342.0    0.4028
4343.0    0.4033
4344.0    0.4037
4345.0    0.4042
4346.0    0.4047
4347.0    0.4052
4348.0    0.4058
4349.0    0.4066
4350.0    0.4073
4351.0    0.4079
4352.0    0.4086
4353.0    0.4092
4354.0    0.4099
4355.0    0.4107
4356.0    0.4115
4357.0    0.4123
4358.0    0.4131
4359.0    0.4139
4360.0    0.4146
4361.0    0.4154
4362.0    0.4161
4363.0    0.4170
4364.0    0.4179
4365.0    0.4187
4366.0    0.4194
4367.0    0.4204
4368.0    0.4213
4369.0    0.4220
4370.0    0.4226
4371.0    0.4234
4372.0    0.4242
4373.0    0.4249
4374.0    0.4255
4375.0    0.4264
4376.0    0.4272
4377.0    0.4278
4378.0    0.4284
4379.0    0.4291
4380.0    0.4298
4381.0    0.4303
4382.0    0.4309
4383.0    0.4315
4384.0    0.4321
4385.0    0.4325
4386.0    0.4329
4387.0    0.4334
4388.0    0.4340
4389.0    0.4343
4390.0    0.4347
4391.0    0.4351
4392.0    0.4354
4393.0    0.4357
4394.0    0.4359
4395.0    0.4361
4396.0    0.4364
4397.0    0.4365
4398.0    0.4366
4399.0    0.4368
4400.0    0.4369
4401.0    0.4369
4402.0    0.4370
4403.0    0.4371
4404.0    0.4371
4405.0    0.4371
4406.0    0.4371
4407.0    0.4372
4408.0    0.4372
4409.0    0.4371
4410.0    0.4371
4411.0    0.4368
4412.0    0.4366
4413.0    0.4366
4414.0    0.4366
4415.0    0.4365
4416.0    0.4365
4417.0    0.4365
4418.0    0.4365
4419.0    0.4363
4420.0    0.4360
4421.0    0.4360
4422.0    0.4360
4423.0    0.4359
4424.0    0.4357
4425.0    0.4357
4426.0    0.4357
4427.0    0.4357
4428.0    0.4357
4429.0    0.4356
4430.0    0.4356
4431.0    0.4357
4432.0    0.4357
4433.0    0.4357
4434.0    0.4356
4435.0    0.4360
4436.0    0.4363
4437.0    0.4364
4438.0    0.4365
4439.0    0.4366
4440.0    0.4367
4441.0    0.4368
4442.0    0.4370
4443.0    0.4374
4444.0    0.4377
4445.0    0.4382
4446.0    0.4386
4447.0    0.4388
4448.0    0.4391
4449.0    0.4395
4450.0    0.4398
4451.0    0.4402
4452.0    0.4407
4453.0    0.4412
4454.0    0.4418
4455.0    0.4423
4456.0    0.4428
4457.0    0.4433
4458.0    0.4439
4459.0    0.4444
4460.0    0.4450
4461.0    0.4456
4462.0    0.4463
4463.0    0.4470
4464.0    0.4476
4465.0    0.4483
4466.0    0.4489
4467.0    0.4496
4468.0    0.4503
4469.0    0.4509
4470.0    0.4515
4471.0    0.4522
4472.0    0.4529
4473.0    0.4537
4474.0    0.4544
4475.0    0.4550
4476.0    0.4555
4477.0    0.4562
4478.0    0.4570
4479.0    0.4575
4480.0    0.4580
4481.0    0.4587
4482.0    0.4594
4483.0    0.4600
4484.0    0.4605
4485.0    0.4612
4486.0    0.4618
4487.0    0.4623
4488.0    0.4628
4489.0    0.4633
4490.0    0.4637
4491.0    0.4641
4492.0    0.4645
4493.0    0.4649
4494.0    0.4652
4495.0    0.4656
4496.0    0.4660
4497.0    0.4662
4498.0    0.4665
4499.0    0.4668
4500.0    0.4671
4501.0    0.4671
4502.0    0.4672
4503.0    0.4674
4504.0    0.4675
4505.0    0.4676
4506.0    0.4677
4507.0    0.4677
4508.0    0.4676
4509.0    0.4676
4510.0    0.4676
4511.0    0.4677
4512.0    0.4677
4513.0    0.4675
4514.0    0.4674
4515.0    0.4671
4516.0    0.4669
4517.0    0.4669
4518.0    0.4669
4519.0    0.4666
4520.0    0.4663
4521.0    0.4662
4522.0    0.4661
4523.0    0.4658
4524.0    0.4655
4525.0    0.4654
4526.0    0.4652
4527.0    0.4650
4528.0    0.4648
4529.0    0.4645
4530.0    0.4642
4531.0    0.4641
4532.0    0.4639
4533.0    0.4638
4534.0    0.4636
4535.0    0.4635
4536.0    0.4633
4537.0    0.4631
4538.0    0.4629
4539.0    0.4628
4540.0    0.4627
4541.0    0.4626
4542.0    0.4625
4543.0    0.4625
4544.0    0.4625
4545.0    0.4624
4546.0    0.4624
4547.0    0.4623
4548.0    0.4623
4549.0    0.4623
4550.0    0.4623
4551.0    0.4624
4552.0    0.4624
4553.0    0.4626
4554.0    0.4628
4555.0    0.4629
4556.0    0.4631
4557.0    0.4632
4558.0    0.4633
4559.0    0.4637
4560.0    0.4640
4561.0    0.4643
4562.0    0.4645
4563.0    0.4648
4564.0    0.4651
4565.0    0.4655
4566.0    0.4659
4567.0    0.4663
4568.0    0.4668
4569.0    0.4671
4570.0    0.4675
4571.0    0.4679
4572.0    0.4684
4573.0    0.4690
4574.0    0.4695
4575.0    0.4700
4576.0    0.4705
4577.0    0.4710
4578.0    0.4715
4579.0    0.4721
4580.0    0.4726
4581.0    0.4732
4582.0    0.4737
4583.0    0.4744
4584.0    0.4751
4585.0    0.4757
4586.0    0.4763
4587.0    0.4769
4588.0    0.4775
4589.0    0.4780
4590.0    0.4786
4591.0    0.4793
4592.0    0.4799
4593.0    0.4804
4594.0    0.4809
4595.0    0.4815
4596.0    0.4821
4597.0    0.4828
4598.0    0.4834
4599.0    0.4839
4600.0    0.4844
4601.0    0.4850
4602.0    0.4856
4603.0    0.4861
4604.0    0.4866
4605.0    0.4870
4606.0    0.4874
4607.0    0.4878
4608.0    0.4883
4609.0    0.4887
4610.0    0.4891
4611.0    0.4895
4612.0    0.4900
4613.0    0.4901
4614.0    0.4902
4615.0    0.4906
4616.0    0.4910
4617.0    0.4912
4618.0    0.4914
4619.0    0.4917
4620.0    0.4920
4621.0    0.4921
4622.0    0.4923
4623.0    0.4925
4624.0    0.4926
4625.0    0.4927
4626.0    0.4928
4627.0    0.4928
4628.0    0.4928
4629.0    0.4929
4630.0    0.4929
4631.0    0.4930
4632.0    0.4930
4633.0    0.4930
4634.0    0.4929
4635.0    0.4930
4636.0    0.4931
4637.0    0.4930
4638.0    0.4928
4639.0    0.4929
4640.0    0.4929
4641.0    0.4928
4642.0    0.4927
4643.0    0.4926
4644.0    0.4925
4645.0    0.4924
4646.0    0.4924
4647.0    0.4924
4648.0    0.4924
4649.0    0.4923
4650.0    0.4922
4651.0    0.4921
4652.0    0.4920
4653.0    0.4920
4654.0    0.4921
4655.0    0.4920
4656.0    0.4919
4657.0    0.4921
4658.0    0.4923
4659.0    0.4921
4660.0    0.4920
4661.0    0.4922
4662.0    0.4923
4663.0    0.4924
4664.0    0.4924
4665.0    0.4925
4666.0    0.4926
4667.0    0.4928
4668.0    0.4929
4669.0    0.4931
4670.0    0.4933
4671.0    0.4935
4672.0    0.4937
4673.0    0.4938
4674.0    0.4940
4675.0    0.4944
4676.0    0.4947
4677.0    0.4950
4678.0    0.4953
4679.0    0.4958
4680.0    0.4962
4681.0    0.4965
4682.0    0.4967
4683.0    0.4972
4684.0    0.4977
4685.0    0.4980
4686.0    0.4983
4687.0    0.4988
4688.0    0.4993
4689.0    0.4998
4690.0    0.5003
4691.0    0.5008
4692.0    0.5012
4693.0    0.5017
4694.0    0.5022
4695.0    0.5027
4696.0    0.5032
4697.0    0.5037
4698.0    0.5043
4699.0    0.5047
4700.0    0.5052
4701.0    0.5057
4702.0    0.5062
4703.0    0.5068
4704.0    0.5075
4705.0    0.5079
4706.0    0.5083
4707.0    0.5089
4708.0    0.5095
4709.0    0.5100
4710.0    0.5106
4711.0    0.5110
4712.0    0.5114
4713.0    0.5118
4714.0    0.5122
4715.0    0.5128
4716.0    0.5133
4717.0    0.5136
4718.0    0.5139
4719.0    0.5144
4720.0    0.5149
4721.0    0.5150
4722.0    0.5151
4723.0    0.5156
4724.0    0.5160
4725.0    0.5163
4726.0    0.5166
4727.0    0.5167
4728.0    0.5169
4729.0    0.5170
4730.0    0.5172
4731.0    0.5174
4732.0    0.5176
4733.0    0.5176
4734.0    0.5176
4735.0    0.5178
4736.0    0.5180
4737.0    0.5178
4738.0    0.5177
4739.0    0.5178
4740.0    0.5180
4741.0    0.5178
4742.0    0.5176
4743.0    0.5174
4744.0    0.5173
4745.0    0.5172
4746.0    0.5172
4747.0    0.5170
4748.0    0.5168
4749.0    0.5167
4750.0    0.5166
4751.0    0.5163
4752.0    0.5160
4753.0    0.5156
4754.0    0.5153
4755.0    0.5151
4756.0    0.5149
4757.0    0.5147
4758.0    0.5145
4759.0    0.5142
4760.0    0.5140
4761.0    0.5137
4762.0    0.5134
4763.0    0.5132
4764.0    0.5129
4765.0    0.5127
4766.0    0.5124
4767.0    0.5121
4768.0    0.5118
4769.0    0.5116
4770.0    0.5113
4771.0    0.5110
4772.0    0.5107
4773.0    0.5105
4774.0    0.5103
4775.0    0.5101
4776.0    0.5100
4777.0    0.5098
4778.0    0.5096
4779.0    0.5094
4780.0    0.5093
4781.0    0.5092
4782.0    0.5091
4783.0    0.5090
4784.0    0.5089
4785.0    0.5089
4786.0    0.5088
4787.0    0.5087
4788.0    0.5086
4789.0    0.5086
4790.0    0.5086
4791.0    0.5087
4792.0    0.5088
4793.0    0.5089
4794.0    0.5089
4795.0    0.5091
4796.0    0.5093
4797.0    0.5095
4798.0    0.5097
4799.0    0.5099
4800.0    0.5101
4801.0    0.5103
4802.0    0.5106
4803.0    0.5108
4804.0    0.5110
4805.0    0.5113
4806.0    0.5117
4807.0    0.5120
4808.0    0.5123
4809.0    0.5127
4810.0    0.5130
4811.0    0.5135
4812.0    0.5140
4813.0    0.5144
4814.0    0.5148
4815.0    0.5153
4816.0    0.5158
4817.0    0.5163
4818.0    0.5168
4819.0    0.5171
4820.0    0.5175
4821.0    0.5182
4822.0    0.5188
4823.0    0.5193
4824.0    0.5199
4825.0    0.5203
4826.0    0.5207
4827.0    0.5214
4828.0    0.5222
4829.0    0.5227
4830.0    0.5232
4831.0    0.5238
4832.0    0.5243
4833.0    0.5249
4834.0    0.5256
4835.0    0.5261
4836.0    0.5267
4837.0    0.5271
4838.0    0.5276
4839.0    0.5282
4840.0    0.5289
4841.0    0.5293
4842.0    0.5298
4843.0    0.5303
4844.0    0.5307
4845.0    0.5312
4846.0    0.5317
4847.0    0.5321
4848.0    0.5325
4849.0    0.5331
4850.0    0.5336
4851.0    0.5339
4852.0    0.5341
4853.0    0.5345
4854.0    0.5348
4855.0    0.5352
4856.0    0.5355
4857.0    0.5358
4858.0    0.5360
4859.0    0.5363
4860.0    0.5366
4861.0    0.5369
4862.0    0.5371
4863.0    0.5373
4864.0    0.5375
4865.0    0.5375
4866.0    0.5376
4867.0    0.5377
4868.0    0.5379
4869.0    0.5380
4870.0    0.5381
4871.0    0.5382
4872.0    0.5384
4873.0    0.5383
4874.0    0.5383
4875.0    0.5384
4876.0    0.5385
4877.0    0.5384
4878.0    0.5384
4879.0    0.5382
4880.0    0.5380
4881.0    0.5380
4882.0    0.5381
4883.0    0.5380
4884.0    0.5379
4885.0    0.5378
4886.0    0.5376
4887.0    0.5374
4888.0    0.5372
4889.0    0.5372
4890.0    0.5372
4891.0    0.5370
4892.0    0.5367
4893.0    0.5367
4894.0    0.5366
4895.0    0.5364
4896.0    0.5363
4897.0    0.5361
4898.0    0.5359
4899.0    0.5358
4900.0    0.5357
4901.0    0.5356
4902.0    0.5354
4903.0    0.5354
4904.0    0.5354
4905.0    0.5351
4906.0    0.5349
4907.0    0.5347
4908.0    0.5345
4909.0    0.5344
4910.0    0.5343
4911.0    0.5342
4912.0    0.5342
4913.0    0.5341
4914.0    0.5341
4915.0    0.5341
4916.0    0.5340
4917.0    0.5339
4918.0    0.5338
4919.0    0.5338
4920.0    0.5339
4921.0    0.5337
4922.0    0.5336
4923.0    0.5337
4924.0    0.5339
4925.0    0.5340
4926.0    0.5341
4927.0    0.5341
4928.0    0.5341
4929.0    0.5344
4930.0    0.5346
4931.0    0.5347
4932.0    0.5348
4933.0    0.5349
4934.0    0.5350
4935.0    0.5351
4936.0    0.5352
4937.0    0.5354
4938.0    0.5357
4939.0    0.5359
4940.0    0.5361
4941.0    0.5363
4942.0    0.5365
4943.0    0.5368
4944.0    0.5371
4945.0    0.5373
4946.0    0.5374
4947.0    0.5376
4948.0    0.5378
4949.0    0.5382
4950.0    0.5385
4951.0    0.5388
4952.0    0.5390
4953.0    0.5393
4954.0    0.5396
4955.0    0.5398
4956.0    0.5400
4957.0    0.5403
4958.0    0.5406
4959.0    0.5409
4960.0    0.5411
4961.0    0.5414
4962.0    0.5416
4963.0    0.5418
4964.0    0.5421
4965.0    0.5423
4966.0    0.5424
4967.0    0.5427
4968.0    0.5430
4969.0    0.5431
4970.0    0.5433
4971.0    0.5434
4972.0    0.5436
4973.0    0.5437
4974.0    0.5439
4975.0    0.5440
4976.0    0.5441
4977.0    0.5443
4978.0    0.5445
4979.0    0.5444
4980.0    0.5444
4981.0    0.5444
4982.0    0.5444
4983.0    0.5445
4984.0    0.5445
4985.0    0.5445
4986.0    0.5445
4987.0    0.5445
4988.0    0.5444
4989.0    0.5443
4990.0    0.5442
4991.0    0.5441
4992.0    0.5440
4993.0    0.5440
4994.0    0.5439
4995.0    0.5437
4996.0    0.5435
4997.0    0.5434
4998.0    0.5433
4999.0    0.5431
5000.0    0.5429
5001.0    0.5427
5002.0    0.5425
5003.0    0.5422
5004.0    0.5420
5005.0    0.5417
5006.0    0.5414
5007.0    0.5413
5008.0    0.5411
5009.0    0.5408
5010.0    0.5405
5011.0    0.5403
5012.0    0.5401
5013.0    0.5399
5014.0    0.5397
5015.0    0.5393
5016.0    0.5390
5017.0    0.5387
5018.0    0.5384
5019.0    0.5382
5020.0    0.5379
5021.0    0.5377
5022.0    0.5375
5023.0    0.5372
5024.0    0.5370
5025.0    0.5367
5026.0    0.5364
5027.0    0.5361
5028.0    0.5358
5029.0    0.5356
5030.0    0.5354
5031.0    0.5352
5032.0    0.5349
5033.0    0.5348
5034.0    0.5346
5035.0    0.5346
5036.0    0.5345
5037.0    0.5344
5038.0    0.5342
5039.0    0.5340
5040.0    0.5339
5041.0    0.5338
5042.0    0.5337
5043.0    0.5336
5044.0    0.5336
5045.0    0.5334
5046.0    0.5331
5047.0    0.5333
5048.0    0.5334
5049.0    0.5335
5050.0    0.5336
5051.0    0.5336
5052.0    0.5336
5053.0    0.5337
5054.0    0.5338
5055.0    0.5338
5056.0    0.5337
5057.0    0.5340
5058.0    0.5343
5059.0    0.5344
5060.0    0.5345
5061.0    0.5347
5062.0    0.5349
5063.0    0.5351
5064.0    0.5353
5065.0    0.5353
5066.0    0.5354
5067.0    0.5357
5068.0    0.5361
5069.0    0.5363
5070.0    0.5366
5071.0    0.5369
5072.0    0.5371
5073.0    0.5374
5074.0    0.5376
5075.0    0.5378
5076.0    0.5380
5077.0    0.5384
5078.0    0.5388
5079.0    0.5391
5080.0    0.5394
5081.0    0.5396
5082.0    0.5398
5083.0    0.5402
5084.0    0.5406
5085.0    0.5410
5086.0    0.5413
5087.0    0.5416
5088.0    0.5418
5089.0    0.5420
5090.0    0.5423
5091.0    0.5425
5092.0    0.5428
5093.0    0.5431
5094.0    0.5434
5095.0    0.5437
5096.0    0.5441
5097.0    0.5442
5098.0    0.5443
5099.0    0.5446
5100.0    0.5448
5101.0    0.5449
5102.0    0.5450
5103.0    0.5452
5104.0    0.5454
5105.0    0.5455
5106.0    0.5456
5107.0    0.5457
5108.0    0.5458
5109.0    0.5458
5110.0    0.5459
5111.0    0.5461
5112.0    0.5463
5113.0    0.5462
5114.0    0.5462
5115.0    0.5461
5116.0    0.5460
5117.0    0.5460
5118.0    0.5460
5119.0    0.5459
5120.0    0.5458
5121.0    0.5458
5122.0    0.5458
5123.0    0.5455
5124.0    0.5452
5125.0    0.5451
5126.0    0.5451
5127.0    0.5449
5128.0    0.5447
5129.0    0.5445
5130.0    0.5443
5131.0    0.5440
5132.0    0.5438
5133.0    0.5435
5134.0    0.5433
5135.0    0.5429
5136.0    0.5426
5137.0    0.5424
5138.0    0.5423
5139.0    0.5419
5140.0    0.5415
5141.0    0.5413
5142.0    0.5411
5143.0    0.5406
5144.0    0.5401
5145.0    0.5399
5146.0    0.5397
5147.0    0.5394
5148.0    0.5391
5149.0    0.5389
5150.0    0.5386
5151.0    0.5382
5152.0    0.5379
5153.0    0.5375
5154.0    0.5372
5155.0    0.5370
5156.0    0.5368
5157.0    0.5366
5158.0    0.5363
5159.0    0.5360
5160.0    0.5358
5161.0    0.5355
5162.0    0.5353
5163.0    0.5352
5164.0    0.5350
5165.0    0.5348
5166.0    0.5346
5167.0    0.5346
5168.0    0.5345
5169.0    0.5343
5170.0    0.5341
5171.0    0.5340
5172.0    0.5339
5173.0    0.5337
5174.0    0.5336
5175.0    0.5336
5176.0    0.5337
5177.0    0.5337
5178.0    0.5338
5179.0    0.5338
5180.0    0.5338
5181.0    0.5339
5182.0    0.5341
5183.0    0.5341
5184.0    0.5341
5185.0    0.5342
5186.0    0.5343
5187.0    0.5344
5188.0    0.5345
5189.0    0.5348
5190.0    0.5350
5191.0    0.5351
5192.0    0.5351
5193.0    0.5353
5194.0    0.5355
5195.0    0.5358
5196.0    0.5360
5197.0    0.5363
5198.0    0.5366
5199.0    0.5368
5200.0    0.5370
5201.0    0.5373
5202.0    0.5376
5203.0    0.5379
5204.0    0.5382
5205.0    0.5384
5206.0    0.5385
5207.0    0.5389
5208.0    0.5393
5209.0    0.5395
5210.0    0.5398
5211.0    0.5400
5212.0    0.5402
5213.0    0.5405
5214.0    0.5409
5215.0    0.5410
5216.0    0.5411
5217.0    0.5414
5218.0    0.5418
5219.0    0.5419
5220.0    0.5420
5221.0    0.5422
5222.0    0.5424
5223.0    0.5425
5224.0    0.5426
5225.0    0.5427
5226.0    0.5428
5227.0    0.5429
5228.0    0.5429
5229.0    0.5431
5230.0    0.5433
5231.0    0.5431
5232.0    0.5429
5233.0    0.5429
5234.0    0.5430
5235.0    0.5428
5236.0    0.5426
5237.0    0.5424
5238.0    0.5422
5239.0    0.5422
5240.0    0.5422
5241.0    0.5418
5242.0    0.5414
5243.0    0.5411
5244.0    0.5409
5245.0    0.5405
5246.0    0.5402
5247.0    0.5399
5248.0    0.5397
5249.0    0.5392
5250.0    0.5387
5251.0    0.5383
5252.0    0.5378
5253.0    0.5374
5254.0    0.5369
5255.0    0.5365
5256.0    0.5360
5257.0    0.5355
5258.0    0.5349
5259.0    0.5344
5260.0    0.5340
5261.0    0.5334
5262.0    0.5328
5263.0    0.5322
5264.0    0.5315
5265.0    0.5309
5266.0    0.5303
5267.0    0.5298
5268.0    0.5293
5269.0    0.5286
5270.0    0.5279
5271.0    0.5274
5272.0    0.5268
5273.0    0.5262
5274.0    0.5255
5275.0    0.5250
5276.0    0.5245
5277.0    0.5239
5278.0    0.5234
5279.0    0.5227
5280.0    0.5220
5281.0    0.5216
5282.0    0.5212
5283.0    0.5208
5284.0    0.5204
5285.0    0.5199
5286.0    0.5195
5287.0    0.5191
5288.0    0.5187
5289.0    0.5182
5290.0    0.5177
5291.0    0.5176
5292.0    0.5174
5293.0    0.5172
5294.0    0.5169
5295.0    0.5167
5296.0    0.5165
5297.0    0.5164
5298.0    0.5163
5299.0    0.5162
5300.0    0.5161
5301.0    0.5160
5302.0    0.5160
5303.0    0.5160
5304.0    0.5160
5305.0    0.5163
5306.0    0.5166
5307.0    0.5166
5308.0    0.5166
5309.0    0.5169
5310.0    0.5172
5311.0    0.5173
5312.0    0.5175
5313.0    0.5180
5314.0    0.5185
5315.0    0.5188
5316.0    0.5190
5317.0    0.5195
5318.0    0.5200
5319.0    0.5204
5320.0    0.5209
5321.0    0.5214
5322.0    0.5218
5323.0    0.5223
5324.0    0.5229
5325.0    0.5234
5326.0    0.5239
5327.0    0.5247
5328.0    0.5254
5329.0    0.5259
5330.0    0.5264
5331.0    0.5269
5332.0    0.5274
5333.0    0.5280
5334.0    0.5286
5335.0    0.5291
5336.0    0.5297
5337.0    0.5301
5338.0    0.5306
5339.0    0.5311
5340.0    0.5317
5341.0    0.5322
5342.0    0.5327
5343.0    0.5332
5344.0    0.5337
5345.0    0.5339
5346.0    0.5341
5347.0    0.5343
5348.0    0.5346
5349.0    0.5348
5350.0    0.5350
5351.0    0.5351
5352.0    0.5353
5353.0    0.5353
5354.0    0.5354
5355.0    0.5352
5356.0    0.5350
5357.0    0.5350
5358.0    0.5349
5359.0    0.5345
5360.0    0.5340
5361.0    0.5337
5362.0    0.5334
5363.0    0.5329
5364.0    0.5324
5365.0    0.5318
5366.0    0.5312
5367.0    0.5303
5368.0    0.5295
5369.0    0.5286
5370.0    0.5278
5371.0    0.5268
5372.0    0.5258
5373.0    0.5249
5374.0    0.5239
5375.0    0.5227
5376.0    0.5216
5377.0    0.5204
5378.0    0.5192
5379.0    0.5178
5380.0    0.5164
5381.0    0.5152
5382.0    0.5139
5383.0    0.5125
5384.0    0.5110
5385.0    0.5098
5386.0    0.5085
5387.0    0.5070
5388.0    0.5056
5389.0    0.5042
5390.0    0.5028
5391.0    0.5012
5392.0    0.4996
5393.0    0.4983
5394.0    0.4970
5395.0    0.4955
5396.0    0.4941
5397.0    0.4928
5398.0    0.4915
5399.0    0.4903
5400.0    0.4890
5401.0    0.4878
5402.0    0.4866
5403.0    0.4854
5404.0    0.4843
5405.0    0.4833
5406.0    0.4823
5407.0    0.4813
5408.0    0.4804
5409.0    0.4795
5410.0    0.4787
5411.0    0.4780
5412.0    0.4774
5413.0    0.4767
5414.0    0.4761
5415.0    0.4755
5416.0    0.4750
5417.0    0.4747
5418.0    0.4743
5419.0    0.4741
5420.0    0.4738
5421.0    0.4737
5422.0    0.4736
5423.0    0.4735
5424.0    0.4734
5425.0    0.4733
5426.0    0.4733
5427.0    0.4736
5428.0    0.4738
5429.0    0.4739
5430.0    0.4740
5431.0    0.4741
5432.0    0.4743
5433.0    0.4745
5434.0    0.4747
5435.0    0.4750
5436.0    0.4753
5437.0    0.4757
5438.0    0.4760
5439.0    0.4761
5440.0    0.4762
5441.0    0.4761
5442.0    0.4761
5443.0    0.4759
5444.0    0.4758
5445.0    0.4755
5446.0    0.4751
5447.0    0.4744
5448.0    0.4738
5449.0    0.4728
5450.0    0.4718
5451.0    0.4707
5452.0    0.4695
5453.0    0.4677
5454.0    0.4659
5455.0    0.4637
5456.0    0.4614
5457.0    0.4587
5458.0    0.4561
5459.0    0.4529
5460.0    0.4496
5461.0    0.4458
5462.0    0.4420
5463.0    0.4376
5464.0    0.4333
5465.0    0.4284
5466.0    0.4234
5467.0    0.4183
5468.0    0.4132
5469.0    0.4069
5470.0    0.4007
5471.0    0.3945
5472.0    0.3883
5473.0    0.3816
5474.0    0.3748
5475.0    0.3679
5476.0    0.3609
5477.0    0.3534
5478.0    0.3459
5479.0    0.3386
5480.0    0.3313
5481.0    0.3236
5482.0    0.3159
5483.0    0.3083
5484.0    0.3008
5485.0    0.2935
5486.0    0.2862
5487.0    0.2790
5488.0    0.2718
5489.0    0.2649
5490.0    0.2579
5491.0    0.2509
5492.0    0.2440
5493.0    0.2374
5494.0    0.2308
5495.0    0.2243
5496.0    0.2178
5497.0    0.2117
5498.0    0.2057
5499.0    0.2000
5500.0    0.1943
5501.0    0.1890
5502.0    0.1837
5503.0    0.1786
5504.0    0.1735
5505.0    0.1688
5506.0    0.1642
5507.0    0.1596
5508.0    0.1551
5509.0    0.1510
5510.0    0.1468
5511.0    0.1430
5512.0    0.1392
5513.0    0.1356
5514.0    0.1320
5515.0    0.1287
5516.0    0.1255
5517.0    0.1223
5518.0    0.1192
5519.0    0.1163
5520.0    0.1135
5521.0    0.1106
5522.0    0.1078
5523.0    0.1054
5524.0    0.1030
5525.0    0.1006
5526.0    0.0981
5527.0    0.0959
5528.0    0.0937
5529.0    0.0917
5530.0    0.0896
5531.0    0.0877
5532.0    0.0858
5533.0    0.0839
5534.0    0.0820
5535.0    0.0802
5536.0    0.0785
5537.0    0.0769
5538.0    0.0752
5539.0    0.0737
5540.0    0.0721
5541.0    0.0706
5542.0    0.0691
5543.0    0.0676
5544.0    0.0661
5545.0    0.0646
5546.0    0.0632
5547.0    0.0617
5548.0    0.0603
5549.0    0.0589
5550.0    0.0575
5551.0    0.0561
5552.0    0.0547
5553.0    0.0533
5554.0    0.0519
5555.0    0.0505
5556.0    0.0491
5557.0    0.0477
5558.0    0.0464
5559.0    0.0449
5560.0    0.0435
5561.0    0.0421
5562.0    0.0408
5563.0    0.0394
5564.0    0.0380
5565.0    0.0367
5566.0    0.0353
5567.0    0.0341
5568.0    0.0328
5569.0    0.0315
5570.0    0.0302
5571.0    0.0289
5572.0    0.0277
5573.0    0.0264
5574.0    0.0251
5575.0    0.0240
5576.0    0.0229
5577.0    0.0218
5578.0    0.0208
5579.0    0.0198
5580.0    0.0187
5581.0    0.0178
5582.0    0.0169
5583.0    0.0160
5584.0    0.0151
5585.0    0.0143
5586.0    0.0135
5587.0    0.0128
5588.0    0.0120
5589.0    0.0114
5590.0    0.0108
5591.0    0.0102
5592.0    0.0096
5593.0    0.0090
5594.0    0.0085
5595.0    0.0080
5596.0    0.0076
5597.0    0.0072
5598.0    0.0067
5599.0    0.0063
5600.0    0.0060
5601.0    0.0056
5602.0    0.0053
5603.0    0.0050
5604.0    0.0047
5605.0    0.0044
5606.0    0.0042
5607.0    0.0039
5608.0    0.0037
5609.0    0.0035
5610.0    0.0033
5611.0    0.0031
5612.0    0.0029
5613.0    0.0028
5614.0    0.0026
5615.0    0.0025
5616.0    0.0023
5617.0    0.0022
5618.0    0.0021
5619.0    0.0020
5620.0    0.0019
5621.0    0.0018
5622.0    0.0017
5623.0    0.0016
5624.0    0.0015
5625.0    0.0014
5626.0    0.0013
5627.0    0.0013
5628.0    0.0012
5629.0    0.0011
5630.0    0.0011
5631.0    0.0010
5632.0    0.0010
5633.0    0.0009
5634.0    0.0009
5635.0    0.0008
5636.0    0.0008
5637.0    0.0007
5638.0    0.0007
5639.0    0.0007
5640.0    0.0006
5641.0    0.0006
5642.0    0.0006
5643.0    0.0005
5644.0    0.0005
5645.0    0.0005
5646.0    0.0005
5647.0    0.0005
5648.0    0.0004
5649.0    0.0004
5650.0    0.0004
5651.0    0.0004
5652.0    0.0004
5653.0    0.0003
5654.0    0.0003
5655.0    0.0003
5656.0    0.0003
5657.0    0.0003
5658.0    0.0003
5659.0    0.0003
5660.0    0.0002
5661.0    0.0002
5662.0    0.0002
5663.0    0.0002
5664.0    0.0002
5665.0    0.0002
5666.0    0.0002
5667.0    0.0002
5668.0    0.0002
5669.0    0.0002
5670.0    0.0002
5671.0    0.0002
5672.0    0.0001
5673.0    0.0001
5674.0    0.0001
5675.0    0.0001
5676.0    0.0001
5677.0    0.0001
5678.0    0.0001
5679.0    0.0001
5680.0    0.0001
5681.0    0.0001
5682.0    0.0001
5683.0    0.0001
5684.0    0.0001
5685.0    0.0001
5686.0    0.0001
5687.0    0.0001
5688.0    0.0001
5689.0    0.0001
5690.0    0.0001
5691.0    0.0001
5692.0    0.0001
5693.0    0.0001
5694.0    0.0001
5695.0    0.0001
5696.0    0.0001
5697.0    0.0001
5698.0    0.0001
5699.0    0.0000
