# file: i_PS.Euclid.pb
# instrument: Euclid
# system: AB
# xtype: wavelength
# ytype: qe
# description: Full system QE
# comment: SPV2 values from SPV02 branch of the Euclid MDB
# comment: MDB file: EUC_MDB_MISSIONCONFIGURATION-SPV02_2018-06-16T140000.00Z_01.01.xml
# comment: MDB variable: ExternalData.PAN.PanSTARRSTotalTrans.i
# url: http://euclid.esac.esa.int/epdb/db/SPV02/
# reference: Euclid Consortium Mission Performance Document, V 2.0
# xref: 754.0 nm
# filter: i_PS
# xunit: nm
664.0    0.000
665.0    0.001
666.0    0.001
667.0    0.001
668.0    0.001
669.0    0.001
670.0    0.001
671.0    0.001
672.0    0.001
673.0    0.001
674.0    0.002
675.0    0.003
676.0    0.003
677.0    0.005
678.0    0.006
679.0    0.008
680.0    0.011
681.0    0.015
682.0    0.020
683.0    0.027
684.0    0.038
685.0    0.057
686.0    0.090
687.0    0.115
688.0    0.180
689.0    0.238
690.0    0.290
691.0    0.348
692.0    0.402
693.0    0.455
694.0    0.500
695.0    0.538
696.0    0.557
697.0    0.572
698.0    0.575
699.0    0.573
700.0    0.575
701.0    0.574
702.0    0.574
703.0    0.573
704.0    0.574
705.0    0.575
706.0    0.577
707.0    0.577
708.0    0.576
709.0    0.574
710.0    0.572
711.0    0.572
712.0    0.573
713.0    0.575
714.0    0.577
715.0    0.579
716.0    0.579
717.0    0.569
718.0    0.562
719.0    0.550
720.0    0.556
721.0    0.568
722.0    0.582
723.0    0.570
724.0    0.561
725.0    0.560
726.0    0.566
727.0    0.562
728.0    0.560
729.0    0.559
730.0    0.564
731.0    0.556
732.0    0.563
733.0    0.568
734.0    0.571
735.0    0.573
736.0    0.576
737.0    0.578
738.0    0.580
739.0    0.580
740.0    0.581
741.0    0.581
742.0    0.580
743.0    0.580
744.0    0.580
745.0    0.580
746.0    0.579
747.0    0.579
748.0    0.579
749.0    0.580
750.0    0.581
751.0    0.581
752.0    0.582
753.0    0.581
754.0    0.581
755.0    0.580
756.0    0.579
757.0    0.578
758.0    0.577
759.0    0.575
760.0    0.272
761.0    0.221
762.0    0.437
763.0    0.305
764.0    0.375
765.0    0.427
766.0    0.487
767.0    0.522
768.0    0.556
769.0    0.564
770.0    0.573
771.0    0.577
772.0    0.577
773.0    0.576
774.0    0.573
775.0    0.572
776.0    0.570
777.0    0.568
778.0    0.567
779.0    0.564
780.0    0.562
781.0    0.560
782.0    0.560
783.0    0.558
784.0    0.557
785.0    0.556
786.0    0.554
787.0    0.552
788.0    0.550
789.0    0.548
790.0    0.545
791.0    0.546
792.0    0.548
793.0    0.550
794.0    0.554
795.0    0.556
796.0    0.556
797.0    0.559
798.0    0.561
799.0    0.560
800.0    0.557
801.0    0.555
802.0    0.553
803.0    0.553
804.0    0.551
805.0    0.550
806.0    0.549
807.0    0.546
808.0    0.544
809.0    0.541
810.0    0.538
811.0    0.536
812.0    0.532
813.0    0.528
814.0    0.516
815.0    0.508
816.0    0.482
817.0    0.453
818.0    0.403
819.0    0.346
820.0    0.270
821.0    0.207
822.0    0.146
823.0    0.094
824.0    0.069
825.0    0.047
826.0    0.031
827.0    0.022
828.0    0.014
829.0    0.010
830.0    0.007
831.0    0.005
832.0    0.003
833.0    0.003
834.0    0.002
835.0    0.001
836.0    0.001
837.0    0.001
838.0    0.001
839.0    0.001
840.0    0.001
841.0    0.001
842.0    0.001
843.0    0.001
844.0    0.000
