# file: r_DECam.Euclid.pb
# system: AB
# comment: SPV2 values from SPV02 branch of the Euclid MDB
# comment: table Blanco-DECam.r-TotalTransmissionsAsOfMarch2017.dat
# filter: r_DECam
# instrument: Euclid
# description: Full system QE
# url: http://euclid.esac.esa.int/epdb/db/SPV02/
# xref: 6439.0 Angstrom
# xtype: wavelength
# ytype: qe
# reference: Euclid Consortium Mission Performance Document, V 2.0
# xunit: Angstrom
5300.0    0.000
5310.0    0.001
5320.0    0.001
5330.0    0.001
5340.0    0.001
5350.0    0.001
5360.0    0.001
5370.0    0.001
5380.0    0.001
5390.0    0.001
5400.0    0.001
5410.0    0.001
5420.0    0.002
5430.0    0.002
5440.0    0.002
5450.0    0.002
5460.0    0.003
5470.0    0.003
5480.0    0.003
5490.0    0.004
5500.0    0.004
5510.0    0.006
5520.0    0.005
5530.0    0.006
5540.0    0.007
5550.0    0.007
5560.0    0.008
5570.0    0.010
5580.0    0.011
5590.0    0.019
5600.0    0.028
5610.0    0.026
5620.0    0.024
5630.0    0.040
5640.0    0.057
5650.0    0.111
5660.0    0.165
5670.0    0.248
5680.0    0.330
5690.0    0.368
5700.0    0.407
5710.0    0.414
5720.0    0.418
5730.0    0.421
5740.0    0.423
5750.0    0.424
5760.0    0.427
5770.0    0.429
5780.0    0.431
5790.0    0.433
5800.0    0.436
5810.0    0.439
5820.0    0.443
5830.0    0.444
5840.0    0.446
5850.0    0.446
5860.0    0.446
5870.0    0.444
5880.0    0.441
5890.0    0.438
5900.0    0.438
5910.0    0.446
5920.0    0.443
5930.0    0.448
5940.0    0.448
5950.0    0.446
5960.0    0.449
5970.0    0.448
5980.0    0.450
5990.0    0.452
6000.0    0.454
6010.0    0.456
6020.0    0.457
6030.0    0.459
6040.0    0.460
6050.0    0.461
6060.0    0.461
6070.0    0.461
6080.0    0.462
6090.0    0.462
6100.0    0.464
6110.0    0.468
6120.0    0.467
6130.0    0.469
6140.0    0.472
6150.0    0.472
6160.0    0.474
6170.0    0.474
6180.0    0.476
6190.0    0.476
6200.0    0.477
6210.0    0.477
6220.0    0.477
6230.0    0.478
6240.0    0.479
6250.0    0.479
6260.0    0.479
6270.0    0.478
6280.0    0.464
6290.0    0.475
6300.0    0.477
6310.0    0.480
6320.0    0.482
6330.0    0.485
6340.0    0.486
6350.0    0.488
6360.0    0.490
6370.0    0.492
6380.0    0.495
6390.0    0.495
6400.0    0.497
6410.0    0.499
6420.0    0.500
6430.0    0.500
6440.0    0.500
6450.0    0.500
6460.0    0.497
6470.0    0.496
6480.0    0.496
6490.0    0.498
6500.0    0.502
6510.0    0.506
6520.0    0.499
6530.0    0.504
6540.0    0.505
6550.0    0.505
6560.0    0.507
6570.0    0.509
6580.0    0.511
6590.0    0.512
6600.0    0.513
6610.0    0.516
6620.0    0.515
6630.0    0.513
6640.0    0.513
6650.0    0.513
6660.0    0.514
6670.0    0.516
6680.0    0.517
6690.0    0.520
6700.0    0.521
6710.0    0.521
6720.0    0.522
6730.0    0.522
6740.0    0.522
6750.0    0.522
6760.0    0.522
6770.0    0.522
6780.0    0.522
6790.0    0.523
6800.0    0.524
6810.0    0.525
6820.0    0.526
6830.0    0.526
6840.0    0.526
6850.0    0.525
6860.0    0.524
6870.0    0.454
6880.0    0.476
6890.0    0.470
6900.0    0.481
6910.0    0.500
6920.0    0.506
6930.0    0.508
6940.0    0.507
6950.0    0.511
6960.0    0.513
6970.0    0.521
6980.0    0.519
6990.0    0.514
7000.0    0.516
7010.0    0.517
7020.0    0.521
7030.0    0.526
7040.0    0.525
7050.0    0.520
7060.0    0.518
7070.0    0.514
7080.0    0.509
7090.0    0.476
7100.0    0.466
7110.0    0.473
7120.0    0.481
7130.0    0.441
7140.0    0.402
7150.0    0.313
7160.0    0.224
7170.0    0.149
7180.0    0.080
7190.0    0.068
7200.0    0.056
7210.0    0.093
7220.0    0.008
7230.0    0.006
7240.0    0.005
7250.0    0.003
7260.0    0.002
7270.0    0.001
7280.0    0.001
7290.0    0.001
7300.0    0.001
7310.0    0.001
7320.0    0.001
7330.0    0.001
7340.0    0.000
7350.0    0.000
7360.0    0.000
7370.0    0.000
7380.0    0.000
7390.0    0.000
7400.0    0.000
7410.0    0.000
7420.0    0.000
7430.0    0.000
7440.0    0.000
7450.0    0.000
7460.0    0.000
7470.0    0.000
7480.0    0.000
7490.0    0.000
7500.0    0.000
7510.0    0.000
7520.0    0.000
7530.0    0.000
7540.0    0.000
7550.0    0.000
7560.0    0.000
7570.0    0.000
7580.0    0.000
7590.0    0.000
7600.0    0.000
7610.0    0.000
7620.0    0.000
7630.0    0.000
7640.0    0.000
7650.0    0.000
7660.0    0.000
7670.0    0.000
7680.0    0.000
7690.0    0.000
7700.0    0.000
7710.0    0.000
7720.0    0.000
7730.0    0.000
7740.0    0.000
7750.0    0.000
7760.0    0.000
7770.0    0.000
7780.0    0.000
7790.0    0.000
7800.0    0.000
7810.0    0.000
7820.0    0.000
7830.0    0.000
7840.0    0.000
7850.0    0.000
7860.0    0.000
7870.0    0.000
7880.0    0.000
7890.0    0.000
7900.0    0.000
7910.0    0.000
7920.0    0.000
7930.0    0.000
7940.0    0.000
7950.0    0.000
7960.0    0.000
7970.0    0.000
7980.0    0.000
7990.0    0.000
8000.0    0.000
8010.0    0.000
8020.0    0.000
8030.0    0.000
8040.0    0.000
8050.0    0.000
8060.0    0.000
8070.0    0.000
8080.0    0.000
8090.0    0.000
8100.0    0.000
8110.0    0.000
8120.0    0.000
8130.0    0.000
8140.0    0.000
8150.0    0.000
8160.0    0.000
8170.0    0.000
8180.0    0.000
8190.0    0.000
8200.0    0.000
8210.0    0.000
8220.0    0.000
8230.0    0.000
8240.0    0.000
8250.0    0.000
8260.0    0.000
8270.0    0.000
8280.0    0.000
8290.0    0.000
8300.0    0.000
8310.0    0.000
8320.0    0.000
8330.0    0.000
8340.0    0.000
8350.0    0.000
8360.0    0.000
8370.0    0.000
8380.0    0.000
8390.0    0.000
8400.0    0.000
8410.0    0.000
8420.0    0.000
8430.0    0.000
8440.0    0.000
8450.0    0.000
8460.0    0.000
8470.0    0.000
8480.0    0.000
8490.0    0.001
8500.0    0.001
8510.0    0.001
8520.0    0.001
8530.0    0.001
8540.0    0.001
8550.0    0.001
8560.0    0.001
8570.0    0.001
8580.0    0.001
8590.0    0.001
8600.0    0.001
8610.0    0.001
8620.0    0.001
8630.0    0.001
8640.0    0.001
8650.0    0.001
8660.0    0.001
8670.0    0.001
8680.0    0.001
8690.0    0.001
8700.0    0.001
8710.0    0.001
8720.0    0.001
8730.0    0.001
8740.0    0.001
8750.0    0.001
8760.0    0.001
8770.0    0.001
8780.0    0.001
8790.0    0.001
8800.0    0.001
8810.0    0.001
8820.0    0.001
8830.0    0.001
8840.0    0.001
8850.0    0.001
8860.0    0.001
8870.0    0.001
8880.0    0.001
8890.0    0.001
8900.0    0.001
8910.0    0.001
8920.0    0.001
8930.0    0.001
8940.0    0.001
8950.0    0.001
8960.0    0.001
8970.0    0.001
8980.0    0.001
8990.0    0.001
9000.0    0.001
9010.0    0.001
9020.0    0.000
9030.0    0.001
9040.0    0.001
9050.0    0.001
9060.0    0.001
9070.0    0.001
9080.0    0.001
9090.0    0.001
9100.0    0.001
9110.0    0.001
9120.0    0.001
9130.0    0.001
9140.0    0.001
9150.0    0.001
9160.0    0.001
9170.0    0.001
9180.0    0.001
9190.0    0.001
9200.0    0.001
9210.0    0.001
9220.0    0.001
9230.0    0.001
9240.0    0.001
9250.0    0.001
9260.0    0.001
9270.0    0.001
9280.0    0.001
9290.0    0.001
9300.0    0.001
9310.0    0.000
9320.0    0.000
9330.0    0.000
9340.0    0.000
9350.0    0.000
9360.0    0.000
9370.0    0.000
9380.0    0.000
9390.0    0.001
9400.0    0.001
9410.0    0.001
9420.0    0.001
9430.0    0.000
9440.0    0.000
9450.0    0.000
9460.0    0.000
9470.0    0.000
9480.0    0.000
9490.0    0.000
9500.0    0.000
9510.0    0.000
9520.0    0.000
9530.0    0.000
9540.0    0.000
9550.0    0.000
9560.0    0.000
9570.0    0.000
9580.0    0.000
9590.0    0.000
9600.0    0.001
9610.0    0.000
9620.0    0.000
9630.0    0.001
9640.0    0.001
9650.0    0.001
9660.0    0.001
9670.0    0.001
9680.0    0.001
9690.0    0.001
9700.0    0.001
9710.0    0.001
9720.0    0.001
9730.0    0.001
9740.0    0.001
9750.0    0.001
9760.0    0.000
9770.0    0.000
9780.0    0.000
9790.0    0.000
9800.0    0.000
9810.0    0.000
9820.0    0.000
9830.0    0.001
9840.0    0.001
9850.0    0.001
9860.0    0.001
9870.0    0.001
9880.0    0.001
9890.0    0.000
