# file: r_LSST.Euclid.pb
# instrument: Euclid
# system: AB
# xtype: wavelength
# ytype: qe
# description: Full system QE
# comment: SPV2 values from SPV02 branch of the Euclid MDB
# comment: MDB file: EUC_MDB_MISSIONCONFIGURATION-SPV02_2018-03-08T140000.00Z_01.01.xml
# comment: MDB variable: ExternalData.LSS.LSSTTotalTrans.r
# url: http://euclid.esac.esa.int/epdb/db/SPV02/
# reference: Euclid Consortium Mission Performance Document, V 2.0
# xref: 622.0 nm
# filter: r_LSST
# xunit: nm
 537.0    0.000
 537.1    0.001
 537.2    0.002
 537.3    0.002
 537.4    0.003
 537.5    0.004
 537.6    0.005
 537.7    0.006
 537.8    0.007
 537.9    0.007
 538.0    0.008
 538.1    0.009
 538.2    0.010
 538.3    0.011
 538.4    0.012
 538.5    0.012
 538.6    0.013
 538.7    0.014
 538.8    0.015
 538.9    0.016
 539.0    0.017
 539.1    0.017
 539.2    0.018
 539.3    0.019
 539.4    0.020
 539.5    0.021
 539.6    0.022
 539.7    0.022
 539.8    0.023
 539.9    0.024
 540.0    0.025
 540.1    0.026
 540.2    0.027
 540.3    0.027
 540.4    0.028
 540.5    0.029
 540.6    0.030
 540.7    0.031
 540.8    0.032
 540.9    0.032
 541.0    0.033
 541.1    0.034
 541.2    0.035
 541.3    0.036
 541.4    0.037
 541.5    0.037
 541.6    0.038
 541.7    0.039
 541.8    0.040
 541.9    0.041
 542.0    0.042
 542.1    0.043
 542.2    0.045
 542.3    0.047
 542.4    0.048
 542.5    0.050
 542.6    0.052
 542.7    0.053
 542.8    0.055
 542.9    0.057
 543.0    0.058
 543.1    0.060
 543.2    0.062
 543.3    0.063
 543.4    0.065
 543.5    0.067
 543.6    0.068
 543.7    0.070
 543.8    0.072
 543.9    0.073
 544.0    0.075
 544.1    0.077
 544.2    0.078
 544.3    0.080
 544.4    0.082
 544.5    0.083
 544.6    0.085
 544.7    0.087
 544.8    0.088
 544.9    0.090
 545.0    0.092
 545.1    0.093
 545.2    0.095
 545.3    0.097
 545.4    0.098
 545.5    0.100
 545.6    0.102
 545.7    0.103
 545.8    0.105
 545.9    0.107
 546.0    0.108
 546.1    0.110
 546.2    0.112
 546.3    0.113
 546.4    0.115
 546.5    0.117
 546.6    0.118
 546.7    0.120
 546.8    0.122
 546.9    0.123
 547.0    0.125
 547.1    0.127
 547.2    0.128
 547.3    0.130
 547.4    0.132
 547.5    0.134
 547.6    0.135
 547.7    0.137
 547.8    0.139
 547.9    0.140
 548.0    0.142
 548.1    0.144
 548.2    0.145
 548.3    0.147
 548.4    0.149
 548.5    0.151
 548.6    0.152
 548.7    0.154
 548.8    0.156
 548.9    0.157
 549.0    0.159
 549.1    0.161
 549.2    0.162
 549.3    0.164
 549.4    0.166
 549.5    0.167
 549.6    0.169
 549.7    0.171
 549.8    0.172
 549.9    0.174
 550.0    0.176
 550.1    0.177
 550.2    0.179
 550.3    0.181
 550.4    0.183
 550.5    0.184
 550.6    0.186
 550.7    0.188
 550.8    0.189
 550.9    0.191
 551.0    0.193
 551.1    0.194
 551.2    0.196
 551.3    0.198
 551.4    0.199
 551.5    0.201
 551.6    0.203
 551.7    0.204
 551.8    0.206
 551.9    0.208
 552.0    0.210
 552.1    0.211
 552.2    0.213
 552.3    0.215
 552.4    0.216
 552.5    0.218
 552.6    0.220
 552.7    0.221
 552.8    0.223
 552.9    0.225
 553.0    0.227
 553.1    0.228
 553.2    0.230
 553.3    0.232
 553.4    0.233
 553.5    0.235
 553.6    0.237
 553.7    0.238
 553.8    0.240
 553.9    0.242
 554.0    0.243
 554.1    0.245
 554.2    0.247
 554.3    0.248
 554.4    0.250
 554.5    0.252
 554.6    0.254
 554.7    0.255
 554.8    0.257
 554.9    0.259
 555.0    0.261
 555.1    0.262
 555.2    0.264
 555.3    0.266
 555.4    0.267
 555.5    0.269
 555.6    0.271
 555.7    0.272
 555.8    0.274
 555.9    0.276
 556.0    0.277
 556.1    0.279
 556.2    0.281
 556.3    0.282
 556.4    0.284
 556.5    0.286
 556.6    0.287
 556.7    0.289
 556.8    0.291
 556.9    0.292
 557.0    0.294
 557.1    0.296
 557.2    0.297
 557.3    0.299
 557.4    0.301
 557.5    0.302
 557.6    0.304
 557.7    0.306
 557.8    0.307
 557.9    0.309
 558.0    0.311
 558.1    0.312
 558.2    0.314
 558.3    0.316
 558.4    0.317
 558.5    0.319
 558.6    0.321
 558.7    0.322
 558.8    0.324
 558.9    0.326
 559.0    0.327
 559.1    0.329
 559.2    0.331
 559.3    0.332
 559.4    0.334
 559.5    0.335
 559.6    0.337
 559.7    0.339
 559.8    0.340
 559.9    0.342
 560.0    0.343
 560.1    0.345
 560.2    0.347
 560.3    0.348
 560.4    0.350
 560.5    0.352
 560.6    0.353
 560.7    0.355
 560.8    0.357
 560.9    0.358
 561.0    0.360
 561.1    0.362
 561.2    0.364
 561.3    0.365
 561.4    0.367
 561.5    0.369
 561.6    0.370
 561.7    0.372
 561.8    0.373
 561.9    0.375
 562.0    0.376
 562.1    0.378
 562.2    0.380
 562.3    0.381
 562.4    0.383
 562.5    0.385
 562.6    0.386
 562.7    0.388
 562.8    0.389
 562.9    0.390
 563.0    0.391
 563.1    0.392
 563.2    0.393
 563.3    0.394
 563.4    0.394
 563.5    0.395
 563.6    0.396
 563.7    0.397
 563.8    0.398
 563.9    0.399
 564.0    0.400
 564.1    0.400
 564.2    0.401
 564.3    0.402
 564.4    0.403
 564.5    0.404
 564.6    0.404
 564.7    0.405
 564.8    0.406
 564.9    0.407
 565.0    0.408
 565.1    0.409
 565.2    0.410
 565.3    0.411
 565.4    0.411
 565.5    0.412
 565.6    0.413
 565.7    0.414
 565.8    0.415
 565.9    0.416
 566.0    0.416
 566.1    0.417
 566.2    0.418
 566.3    0.419
 566.4    0.419
 566.5    0.419
 566.6    0.419
 566.7    0.419
 566.8    0.419
 566.9    0.419
 567.0    0.419
 567.1    0.419
 567.2    0.419
 567.3    0.419
 567.4    0.419
 567.5    0.419
 567.6    0.419
 567.7    0.419
 567.8    0.419
 567.9    0.420
 568.0    0.420
 568.1    0.420
 568.2    0.419
 568.3    0.419
 568.4    0.419
 568.5    0.419
 568.6    0.419
 568.7    0.419
 568.8    0.419
 568.9    0.419
 569.0    0.419
 569.1    0.419
 569.2    0.419
 569.3    0.419
 569.4    0.419
 569.5    0.419
 569.6    0.420
 569.7    0.420
 569.8    0.420
 569.9    0.420
 570.0    0.420
 570.1    0.420
 570.2    0.420
 570.3    0.420
 570.4    0.420
 570.5    0.421
 570.6    0.421
 570.7    0.421
 570.8    0.421
 570.9    0.421
 571.0    0.421
 571.1    0.421
 571.2    0.421
 571.3    0.421
 571.4    0.421
 571.5    0.421
 571.6    0.421
 571.7    0.421
 571.8    0.421
 571.9    0.421
 572.0    0.421
 572.1    0.421
 572.2    0.422
 572.3    0.422
 572.4    0.422
 572.5    0.422
 572.6    0.422
 572.7    0.422
 572.8    0.422
 572.9    0.422
 573.0    0.422
 573.1    0.422
 573.2    0.422
 573.3    0.422
 573.4    0.422
 573.5    0.423
 573.6    0.423
 573.7    0.423
 573.8    0.423
 573.9    0.423
 574.0    0.423
 574.1    0.423
 574.2    0.423
 574.3    0.423
 574.4    0.423
 574.5    0.423
 574.6    0.423
 574.7    0.424
 574.8    0.424
 574.9    0.424
 575.0    0.424
 575.1    0.424
 575.2    0.424
 575.3    0.424
 575.4    0.424
 575.5    0.425
 575.6    0.425
 575.7    0.425
 575.8    0.425
 575.9    0.425
 576.0    0.425
 576.1    0.425
 576.2    0.425
 576.3    0.425
 576.4    0.425
 576.5    0.426
 576.6    0.426
 576.7    0.426
 576.8    0.426
 576.9    0.426
 577.0    0.426
 577.1    0.426
 577.2    0.426
 577.3    0.426
 577.4    0.426
 577.5    0.426
 577.6    0.426
 577.7    0.427
 577.8    0.427
 577.9    0.427
 578.0    0.427
 578.1    0.427
 578.2    0.427
 578.3    0.427
 578.4    0.427
 578.5    0.427
 578.6    0.427
 578.7    0.428
 578.8    0.428
 578.9    0.428
 579.0    0.428
 579.1    0.428
 579.2    0.428
 579.3    0.428
 579.4    0.428
 579.5    0.428
 579.6    0.429
 579.7    0.429
 579.8    0.429
 579.9    0.429
 580.0    0.429
 580.1    0.429
 580.2    0.429
 580.3    0.429
 580.4    0.429
 580.5    0.429
 580.6    0.429
 580.7    0.429
 580.8    0.429
 580.9    0.429
 581.0    0.430
 581.1    0.430
 581.2    0.430
 581.3    0.429
 581.4    0.429
 581.5    0.429
 581.6    0.430
 581.7    0.430
 581.8    0.430
 581.9    0.430
 582.0    0.430
 582.1    0.430
 582.2    0.430
 582.3    0.430
 582.4    0.430
 582.5    0.430
 582.6    0.430
 582.7    0.430
 582.8    0.430
 582.9    0.431
 583.0    0.431
 583.1    0.431
 583.2    0.431
 583.3    0.431
 583.4    0.431
 583.5    0.431
 583.6    0.431
 583.7    0.431
 583.8    0.431
 583.9    0.431
 584.0    0.431
 584.1    0.431
 584.2    0.431
 584.3    0.431
 584.4    0.431
 584.5    0.431
 584.6    0.431
 584.7    0.431
 584.8    0.432
 584.9    0.432
 585.0    0.432
 585.1    0.432
 585.2    0.432
 585.3    0.432
 585.4    0.432
 585.5    0.432
 585.6    0.432
 585.7    0.432
 585.8    0.432
 585.9    0.432
 586.0    0.432
 586.1    0.432
 586.2    0.432
 586.3    0.432
 586.4    0.432
 586.5    0.432
 586.6    0.432
 586.7    0.432
 586.8    0.432
 586.9    0.432
 587.0    0.432
 587.1    0.432
 587.2    0.432
 587.3    0.432
 587.4    0.432
 587.5    0.432
 587.6    0.432
 587.7    0.432
 587.8    0.432
 587.9    0.431
 588.0    0.431
 588.1    0.431
 588.2    0.431
 588.3    0.431
 588.4    0.430
 588.5    0.430
 588.6    0.430
 588.7    0.430
 588.8    0.429
 588.9    0.429
 589.0    0.429
 589.1    0.429
 589.2    0.429
 589.3    0.429
 589.4    0.429
 589.5    0.429
 589.6    0.429
 589.7    0.429
 589.8    0.429
 589.9    0.429
 590.0    0.429
 590.1    0.429
 590.2    0.429
 590.3    0.429
 590.4    0.429
 590.5    0.429
 590.6    0.429
 590.7    0.429
 590.8    0.430
 590.9    0.430
 591.0    0.430
 591.1    0.430
 591.2    0.430
 591.3    0.429
 591.4    0.429
 591.5    0.429
 591.6    0.429
 591.7    0.429
 591.8    0.429
 591.9    0.428
 592.0    0.428
 592.1    0.428
 592.2    0.428
 592.3    0.428
 592.4    0.428
 592.5    0.428
 592.6    0.428
 592.7    0.428
 592.8    0.428
 592.9    0.429
 593.0    0.429
 593.1    0.429
 593.2    0.429
 593.3    0.429
 593.4    0.429
 593.5    0.429
 593.6    0.429
 593.7    0.429
 593.8    0.428
 593.9    0.428
 594.0    0.428
 594.1    0.427
 594.2    0.427
 594.3    0.427
 594.4    0.426
 594.5    0.426
 594.6    0.426
 594.7    0.426
 594.8    0.426
 594.9    0.426
 595.0    0.427
 595.1    0.427
 595.2    0.427
 595.3    0.427
 595.4    0.428
 595.5    0.428
 595.6    0.428
 595.7    0.428
 595.8    0.428
 595.9    0.428
 596.0    0.428
 596.1    0.428
 596.2    0.428
 596.3    0.428
 596.4    0.428
 596.5    0.428
 596.6    0.428
 596.7    0.428
 596.8    0.428
 596.9    0.427
 597.0    0.427
 597.1    0.427
 597.2    0.427
 597.3    0.427
 597.4    0.427
 597.5    0.427
 597.6    0.427
 597.7    0.427
 597.8    0.427
 597.9    0.427
 598.0    0.427
 598.1    0.427
 598.2    0.427
 598.3    0.427
 598.4    0.427
 598.5    0.427
 598.6    0.427
 598.7    0.427
 598.8    0.427
 598.9    0.427
 599.0    0.427
 599.1    0.428
 599.2    0.428
 599.3    0.428
 599.4    0.428
 599.5    0.428
 599.6    0.428
 599.7    0.428
 599.8    0.428
 599.9    0.428
 600.0    0.428
 600.1    0.428
 600.2    0.428
 600.3    0.428
 600.4    0.428
 600.5    0.428
 600.6    0.428
 600.7    0.428
 600.8    0.428
 600.9    0.427
 601.0    0.427
 601.1    0.427
 601.2    0.427
 601.3    0.427
 601.4    0.427
 601.5    0.427
 601.6    0.427
 601.7    0.427
 601.8    0.427
 601.9    0.427
 602.0    0.427
 602.1    0.427
 602.2    0.427
 602.3    0.427
 602.4    0.427
 602.5    0.427
 602.6    0.427
 602.7    0.427
 602.8    0.427
 602.9    0.427
 603.0    0.427
 603.1    0.427
 603.2    0.427
 603.3    0.427
 603.4    0.427
 603.5    0.427
 603.6    0.427
 603.7    0.427
 603.8    0.427
 603.9    0.427
 604.0    0.427
 604.1    0.427
 604.2    0.427
 604.3    0.427
 604.4    0.427
 604.5    0.427
 604.6    0.427
 604.7    0.427
 604.8    0.427
 604.9    0.427
 605.0    0.428
 605.1    0.428
 605.2    0.428
 605.3    0.428
 605.4    0.427
 605.5    0.427
 605.6    0.428
 605.7    0.428
 605.8    0.428
 605.9    0.428
 606.0    0.428
 606.1    0.428
 606.2    0.428
 606.3    0.428
 606.4    0.428
 606.5    0.428
 606.6    0.428
 606.7    0.428
 606.8    0.428
 606.9    0.428
 607.0    0.428
 607.1    0.428
 607.2    0.428
 607.3    0.428
 607.4    0.428
 607.5    0.428
 607.6    0.429
 607.7    0.429
 607.8    0.429
 607.9    0.429
 608.0    0.429
 608.1    0.429
 608.2    0.429
 608.3    0.429
 608.4    0.429
 608.5    0.429
 608.6    0.429
 608.7    0.429
 608.8    0.429
 608.9    0.430
 609.0    0.430
 609.1    0.430
 609.2    0.430
 609.3    0.430
 609.4    0.430
 609.5    0.430
 609.6    0.430
 609.7    0.430
 609.8    0.430
 609.9    0.431
 610.0    0.431
 610.1    0.431
 610.2    0.431
 610.3    0.431
 610.4    0.431
 610.5    0.431
 610.6    0.431
 610.7    0.432
 610.8    0.432
 610.9    0.432
 611.0    0.432
 611.1    0.432
 611.2    0.432
 611.3    0.432
 611.4    0.432
 611.5    0.432
 611.6    0.432
 611.7    0.432
 611.8    0.432
 611.9    0.432
 612.0    0.433
 612.1    0.433
 612.2    0.433
 612.3    0.433
 612.4    0.433
 612.5    0.434
 612.6    0.434
 612.7    0.434
 612.8    0.434
 612.9    0.434
 613.0    0.434
 613.1    0.434
 613.2    0.434
 613.3    0.434
 613.4    0.435
 613.5    0.435
 613.6    0.435
 613.7    0.435
 613.8    0.435
 613.9    0.435
 614.0    0.435
 614.1    0.435
 614.2    0.436
 614.3    0.436
 614.4    0.436
 614.5    0.436
 614.6    0.436
 614.7    0.436
 614.8    0.436
 614.9    0.436
 615.0    0.437
 615.1    0.437
 615.2    0.437
 615.3    0.437
 615.4    0.437
 615.5    0.437
 615.6    0.437
 615.7    0.437
 615.8    0.437
 615.9    0.437
 616.0    0.438
 616.1    0.438
 616.2    0.438
 616.3    0.438
 616.4    0.438
 616.5    0.438
 616.6    0.438
 616.7    0.439
 616.8    0.439
 616.9    0.439
 617.0    0.439
 617.1    0.439
 617.2    0.439
 617.3    0.439
 617.4    0.439
 617.5    0.439
 617.6    0.440
 617.7    0.440
 617.8    0.440
 617.9    0.440
 618.0    0.440
 618.1    0.440
 618.2    0.440
 618.3    0.440
 618.4    0.440
 618.5    0.440
 618.6    0.441
 618.7    0.441
 618.8    0.441
 618.9    0.441
 619.0    0.441
 619.1    0.441
 619.2    0.441
 619.3    0.441
 619.4    0.441
 619.5    0.442
 619.6    0.442
 619.7    0.442
 619.8    0.442
 619.9    0.442
 620.0    0.442
 620.1    0.442
 620.2    0.442
 620.3    0.442
 620.4    0.442
 620.5    0.442
 620.6    0.443
 620.7    0.443
 620.8    0.443
 620.9    0.443
 621.0    0.443
 621.1    0.443
 621.2    0.443
 621.3    0.443
 621.4    0.443
 621.5    0.443
 621.6    0.443
 621.7    0.443
 621.8    0.443
 621.9    0.444
 622.0    0.444
 622.1    0.444
 622.2    0.444
 622.3    0.444
 622.4    0.444
 622.5    0.444
 622.6    0.444
 622.7    0.444
 622.8    0.444
 622.9    0.444
 623.0    0.445
 623.1    0.445
 623.2    0.445
 623.3    0.445
 623.4    0.445
 623.5    0.445
 623.6    0.445
 623.7    0.445
 623.8    0.445
 623.9    0.445
 624.0    0.445
 624.1    0.445
 624.2    0.445
 624.3    0.445
 624.4    0.445
 624.5    0.445
 624.6    0.445
 624.7    0.445
 624.8    0.445
 624.9    0.445
 625.0    0.445
 625.1    0.445
 625.2    0.445
 625.3    0.445
 625.4    0.445
 625.5    0.446
 625.6    0.446
 625.7    0.446
 625.8    0.446
 625.9    0.446
 626.0    0.446
 626.1    0.446
 626.2    0.446
 626.3    0.446
 626.4    0.446
 626.5    0.446
 626.6    0.446
 626.7    0.446
 626.8    0.446
 626.9    0.446
 627.0    0.446
 627.1    0.445
 627.2    0.444
 627.3    0.443
 627.4    0.442
 627.5    0.441
 627.6    0.440
 627.7    0.439
 627.8    0.437
 627.9    0.436
 628.0    0.435
 628.1    0.435
 628.2    0.436
 628.3    0.436
 628.4    0.437
 628.5    0.437
 628.6    0.438
 628.7    0.439
 628.8    0.439
 628.9    0.440
 629.0    0.441
 629.1    0.441
 629.2    0.441
 629.3    0.441
 629.4    0.441
 629.5    0.441
 629.6    0.441
 629.7    0.441
 629.8    0.441
 629.9    0.441
 630.0    0.441
 630.1    0.441
 630.2    0.442
 630.3    0.442
 630.4    0.443
 630.5    0.443
 630.6    0.443
 630.7    0.443
 630.8    0.444
 630.9    0.444
 631.0    0.444
 631.1    0.444
 631.2    0.445
 631.3    0.445
 631.4    0.445
 631.5    0.445
 631.6    0.445
 631.7    0.445
 631.8    0.446
 631.9    0.446
 632.0    0.446
 632.1    0.446
 632.2    0.446
 632.3    0.446
 632.4    0.447
 632.5    0.447
 632.6    0.447
 632.7    0.447
 632.8    0.447
 632.9    0.447
 633.0    0.447
 633.1    0.447
 633.2    0.447
 633.3    0.447
 633.4    0.447
 633.5    0.447
 633.6    0.447
 633.7    0.447
 633.8    0.447
 633.9    0.447
 634.0    0.447
 634.1    0.447
 634.2    0.447
 634.3    0.447
 634.4    0.447
 634.5    0.447
 634.6    0.447
 634.7    0.447
 634.8    0.447
 634.9    0.447
 635.0    0.448
 635.1    0.448
 635.2    0.448
 635.3    0.448
 635.4    0.448
 635.5    0.448
 635.6    0.448
 635.7    0.448
 635.8    0.448
 635.9    0.448
 636.0    0.448
 636.1    0.448
 636.2    0.448
 636.3    0.448
 636.4    0.448
 636.5    0.448
 636.6    0.448
 636.7    0.448
 636.8    0.448
 636.9    0.448
 637.0    0.448
 637.1    0.448
 637.2    0.448
 637.3    0.448
 637.4    0.448
 637.5    0.448
 637.6    0.448
 637.7    0.448
 637.8    0.448
 637.9    0.448
 638.0    0.448
 638.1    0.448
 638.2    0.448
 638.3    0.448
 638.4    0.448
 638.5    0.448
 638.6    0.448
 638.7    0.448
 638.8    0.448
 638.9    0.448
 639.0    0.449
 639.1    0.449
 639.2    0.448
 639.3    0.448
 639.4    0.448
 639.5    0.448
 639.6    0.448
 639.7    0.448
 639.8    0.448
 639.9    0.448
 640.0    0.448
 640.1    0.448
 640.2    0.449
 640.3    0.449
 640.4    0.449
 640.5    0.449
 640.6    0.449
 640.7    0.449
 640.8    0.449
 640.9    0.449
 641.0    0.449
 641.1    0.449
 641.2    0.449
 641.3    0.449
 641.4    0.449
 641.5    0.449
 641.6    0.449
 641.7    0.449
 641.8    0.449
 641.9    0.449
 642.0    0.449
 642.1    0.449
 642.2    0.449
 642.3    0.449
 642.4    0.449
 642.5    0.449
 642.6    0.449
 642.7    0.449
 642.8    0.449
 642.9    0.449
 643.0    0.449
 643.1    0.449
 643.2    0.449
 643.3    0.449
 643.4    0.449
 643.5    0.449
 643.6    0.449
 643.7    0.449
 643.8    0.449
 643.9    0.449
 644.0    0.449
 644.1    0.449
 644.2    0.450
 644.3    0.450
 644.4    0.450
 644.5    0.450
 644.6    0.450
 644.7    0.450
 644.8    0.450
 644.9    0.450
 645.0    0.450
 645.1    0.450
 645.2    0.450
 645.3    0.450
 645.4    0.450
 645.5    0.450
 645.6    0.450
 645.7    0.450
 645.8    0.450
 645.9    0.450
 646.0    0.450
 646.1    0.450
 646.2    0.449
 646.3    0.449
 646.4    0.449
 646.5    0.449
 646.6    0.449
 646.7    0.449
 646.8    0.448
 646.9    0.448
 647.0    0.448
 647.1    0.448
 647.2    0.448
 647.3    0.448
 647.4    0.448
 647.5    0.448
 647.6    0.448
 647.7    0.448
 647.8    0.448
 647.9    0.448
 648.0    0.448
 648.1    0.448
 648.2    0.448
 648.3    0.448
 648.4    0.448
 648.5    0.448
 648.6    0.449
 648.7    0.449
 648.8    0.449
 648.9    0.449
 649.0    0.449
 649.1    0.449
 649.2    0.449
 649.3    0.449
 649.4    0.449
 649.5    0.449
 649.6    0.449
 649.7    0.450
 649.8    0.450
 649.9    0.450
 650.0    0.451
 650.1    0.451
 650.2    0.451
 650.3    0.451
 650.4    0.451
 650.5    0.451
 650.6    0.451
 650.7    0.451
 650.8    0.451
 650.9    0.451
 651.0    0.450
 651.1    0.450
 651.2    0.450
 651.3    0.450
 651.4    0.449
 651.5    0.449
 651.6    0.449
 651.7    0.449
 651.8    0.449
 651.9    0.449
 652.0    0.449
 652.1    0.449
 652.2    0.449
 652.3    0.450
 652.4    0.450
 652.5    0.450
 652.6    0.450
 652.7    0.450
 652.8    0.451
 652.9    0.451
 653.0    0.451
 653.1    0.451
 653.2    0.451
 653.3    0.451
 653.4    0.451
 653.5    0.451
 653.6    0.451
 653.7    0.451
 653.8    0.451
 653.9    0.451
 654.0    0.451
 654.1    0.451
 654.2    0.451
 654.3    0.450
 654.4    0.450
 654.5    0.450
 654.6    0.450
 654.7    0.450
 654.8    0.450
 654.9    0.450
 655.0    0.450
 655.1    0.450
 655.2    0.450
 655.3    0.450
 655.4    0.450
 655.5    0.450
 655.6    0.450
 655.7    0.450
 655.8    0.450
 655.9    0.450
 656.0    0.450
 656.1    0.451
 656.2    0.451
 656.3    0.451
 656.4    0.451
 656.5    0.451
 656.6    0.451
 656.7    0.451
 656.8    0.451
 656.9    0.451
 657.0    0.451
 657.1    0.451
 657.2    0.451
 657.3    0.451
 657.4    0.451
 657.5    0.451
 657.6    0.451
 657.7    0.451
 657.8    0.451
 657.9    0.451
 658.0    0.451
 658.1    0.452
 658.2    0.452
 658.3    0.452
 658.4    0.452
 658.5    0.452
 658.6    0.452
 658.7    0.452
 658.8    0.453
 658.9    0.453
 659.0    0.453
 659.1    0.453
 659.2    0.453
 659.3    0.453
 659.4    0.453
 659.5    0.453
 659.6    0.453
 659.7    0.453
 659.8    0.453
 659.9    0.453
 660.0    0.453
 660.1    0.453
 660.2    0.453
 660.3    0.453
 660.4    0.453
 660.5    0.453
 660.6    0.453
 660.7    0.453
 660.8    0.454
 660.9    0.454
 661.0    0.454
 661.1    0.454
 661.2    0.454
 661.3    0.454
 661.4    0.454
 661.5    0.453
 661.6    0.454
 661.7    0.454
 661.8    0.454
 661.9    0.454
 662.0    0.454
 662.1    0.454
 662.2    0.454
 662.3    0.454
 662.4    0.454
 662.5    0.454
 662.6    0.454
 662.7    0.454
 662.8    0.454
 662.9    0.454
 663.0    0.454
 663.1    0.454
 663.2    0.454
 663.3    0.454
 663.4    0.454
 663.5    0.454
 663.6    0.454
 663.7    0.454
 663.8    0.454
 663.9    0.454
 664.0    0.454
 664.1    0.454
 664.2    0.454
 664.3    0.454
 664.4    0.453
 664.5    0.453
 664.6    0.453
 664.7    0.454
 664.8    0.454
 664.9    0.454
 665.0    0.454
 665.1    0.454
 665.2    0.454
 665.3    0.454
 665.4    0.454
 665.5    0.454
 665.6    0.454
 665.7    0.454
 665.8    0.454
 665.9    0.454
 666.0    0.454
 666.1    0.454
 666.2    0.454
 666.3    0.454
 666.4    0.454
 666.5    0.454
 666.6    0.454
 666.7    0.454
 666.8    0.453
 666.9    0.453
 667.0    0.453
 667.1    0.453
 667.2    0.453
 667.3    0.453
 667.4    0.453
 667.5    0.453
 667.6    0.453
 667.7    0.453
 667.8    0.453
 667.9    0.453
 668.0    0.453
 668.1    0.453
 668.2    0.453
 668.3    0.453
 668.4    0.453
 668.5    0.453
 668.6    0.453
 668.7    0.453
 668.8    0.453
 668.9    0.453
 669.0    0.453
 669.1    0.453
 669.2    0.453
 669.3    0.453
 669.4    0.453
 669.5    0.453
 669.6    0.453
 669.7    0.453
 669.8    0.453
 669.9    0.453
 670.0    0.453
 670.1    0.453
 670.2    0.453
 670.3    0.453
 670.4    0.453
 670.5    0.453
 670.6    0.453
 670.7    0.453
 670.8    0.453
 670.9    0.453
 671.0    0.453
 671.1    0.453
 671.2    0.453
 671.3    0.453
 671.4    0.453
 671.5    0.453
 671.6    0.453
 671.7    0.453
 671.8    0.453
 671.9    0.452
 672.0    0.452
 672.1    0.452
 672.2    0.452
 672.3    0.452
 672.4    0.452
 672.5    0.452
 672.6    0.452
 672.7    0.452
 672.8    0.452
 672.9    0.452
 673.0    0.452
 673.1    0.452
 673.2    0.452
 673.3    0.452
 673.4    0.452
 673.5    0.452
 673.6    0.452
 673.7    0.452
 673.8    0.452
 673.9    0.452
 674.0    0.452
 674.1    0.452
 674.2    0.452
 674.3    0.452
 674.4    0.452
 674.5    0.452
 674.6    0.452
 674.7    0.452
 674.8    0.451
 674.9    0.451
 675.0    0.451
 675.1    0.451
 675.2    0.451
 675.3    0.451
 675.4    0.451
 675.5    0.451
 675.6    0.451
 675.7    0.451
 675.8    0.451
 675.9    0.451
 676.0    0.451
 676.1    0.451
 676.2    0.451
 676.3    0.451
 676.4    0.451
 676.5    0.451
 676.6    0.451
 676.7    0.450
 676.8    0.450
 676.9    0.449
 677.0    0.448
 677.1    0.447
 677.2    0.446
 677.3    0.445
 677.4    0.444
 677.5    0.443
 677.6    0.443
 677.7    0.442
 677.8    0.441
 677.9    0.440
 678.0    0.439
 678.1    0.438
 678.2    0.437
 678.3    0.436
 678.4    0.436
 678.5    0.435
 678.6    0.434
 678.7    0.433
 678.8    0.432
 678.9    0.431
 679.0    0.430
 679.1    0.429
 679.2    0.428
 679.3    0.427
 679.4    0.426
 679.5    0.425
 679.6    0.424
 679.7    0.423
 679.8    0.422
 679.9    0.421
 680.0    0.420
 680.1    0.419
 680.2    0.419
 680.3    0.417
 680.4    0.415
 680.5    0.414
 680.6    0.412
 680.7    0.410
 680.8    0.408
 680.9    0.406
 681.0    0.404
 681.1    0.403
 681.2    0.401
 681.3    0.399
 681.4    0.397
 681.5    0.395
 681.6    0.393
 681.7    0.391
 681.8    0.389
 681.9    0.388
 682.0    0.386
 682.1    0.384
 682.2    0.382
 682.3    0.380
 682.4    0.378
 682.5    0.376
 682.6    0.375
 682.7    0.373
 682.8    0.371
 682.9    0.369
 683.0    0.368
 683.1    0.366
 683.2    0.364
 683.3    0.362
 683.4    0.360
 683.5    0.358
 683.6    0.357
 683.7    0.355
 683.8    0.353
 683.9    0.351
 684.0    0.349
 684.1    0.347
 684.2    0.346
 684.3    0.344
 684.4    0.342
 684.5    0.340
 684.6    0.338
 684.7    0.336
 684.8    0.334
 684.9    0.333
 685.0    0.331
 685.1    0.329
 685.2    0.327
 685.3    0.325
 685.4    0.323
 685.5    0.321
 685.6    0.319
 685.7    0.317
 685.8    0.315
 685.9    0.313
 686.0    0.311
 686.1    0.306
 686.2    0.301
 686.3    0.296
 686.4    0.292
 686.5    0.287
 686.6    0.278
 686.7    0.269
 686.8    0.261
 686.9    0.252
 687.0    0.243
 687.1    0.238
 687.2    0.234
 687.3    0.229
 687.4    0.224
 687.5    0.220
 687.6    0.222
 687.7    0.224
 687.8    0.226
 687.9    0.229
 688.0    0.231
 688.1    0.232
 688.2    0.233
 688.3    0.235
 688.4    0.236
 688.5    0.237
 688.6    0.235
 688.7    0.233
 688.8    0.230
 688.9    0.228
 689.0    0.226
 689.1    0.224
 689.2    0.222
 689.3    0.221
 689.4    0.219
 689.5    0.218
 689.6    0.217
 689.7    0.217
 689.8    0.216
 689.9    0.215
 690.0    0.215
 690.1    0.214
 690.2    0.213
 690.3    0.212
 690.4    0.211
 690.5    0.210
 690.6    0.210
 690.7    0.209
 690.8    0.208
 690.9    0.207
 691.0    0.206
 691.1    0.205
 691.2    0.204
 691.3    0.203
 691.4    0.202
 691.5    0.201
 691.6    0.200
 691.7    0.199
 691.8    0.197
 691.9    0.196
 692.0    0.195
 692.1    0.194
 692.2    0.193
 692.3    0.191
 692.4    0.190
 692.5    0.189
 692.6    0.187
 692.7    0.186
 692.8    0.185
 692.9    0.183
 693.0    0.182
 693.1    0.180
 693.2    0.178
 693.3    0.177
 693.4    0.175
 693.5    0.174
 693.6    0.172
 693.7    0.170
 693.8    0.168
 693.9    0.167
 694.0    0.165
 694.1    0.163
 694.2    0.162
 694.3    0.160
 694.4    0.158
 694.5    0.156
 694.6    0.155
 694.7    0.153
 694.8    0.152
 694.9    0.150
 695.0    0.148
 695.1    0.147
 695.2    0.145
 695.3    0.143
 695.4    0.142
 695.5    0.140
 695.6    0.138
 695.7    0.136
 695.8    0.135
 695.9    0.133
 696.0    0.131
 696.1    0.130
 696.2    0.128
 696.3    0.126
 696.4    0.125
 696.5    0.123
 696.6    0.122
 696.7    0.120
 696.8    0.118
 696.9    0.117
 697.0    0.115
 697.1    0.113
 697.2    0.112
 697.3    0.110
 697.4    0.108
 697.5    0.106
 697.6    0.105
 697.7    0.103
 697.8    0.101
 697.9    0.099
 698.0    0.097
 698.1    0.096
 698.2    0.094
 698.3    0.092
 698.4    0.090
 698.5    0.088
 698.6    0.086
 698.7    0.085
 698.8    0.083
 698.9    0.081
 699.0    0.079
 699.1    0.077
 699.2    0.075
 699.3    0.074
 699.4    0.072
 699.5    0.070
 699.6    0.068
 699.7    0.067
 699.8    0.065
 699.9    0.063
 700.0    0.062
 700.1    0.060
 700.2    0.058
 700.3    0.056
 700.4    0.055
 700.5    0.053
 700.6    0.051
 700.7    0.049
 700.8    0.047
 700.9    0.046
 701.0    0.044
 701.1    0.043
 701.2    0.042
 701.3    0.041
 701.4    0.040
 701.5    0.040
 701.6    0.039
 701.7    0.038
 701.8    0.037
 701.9    0.036
 702.0    0.035
 702.1    0.034
 702.2    0.033
 702.3    0.033
 702.4    0.032
 702.5    0.031
 702.6    0.030
 702.7    0.029
 702.8    0.028
 702.9    0.027
 703.0    0.026
 703.1    0.026
 703.2    0.025
 703.3    0.024
 703.4    0.023
 703.5    0.022
 703.6    0.021
 703.7    0.020
 703.8    0.019
 703.9    0.019
 704.0    0.018
 704.1    0.017
 704.2    0.016
 704.3    0.015
 704.4    0.014
 704.5    0.013
 704.6    0.012
 704.7    0.012
 704.8    0.011
 704.9    0.010
 705.0    0.009
 705.1    0.008
 705.2    0.007
 705.3    0.006
 705.4    0.005
 705.5    0.004
 705.6    0.004
 705.7    0.003
 705.8    0.002
 705.9    0.001
 706.0    0.000
