# file: y_LSST.Euclid.pb
# instrument: Euclid
# system: AB
# xtype: wavelength
# ytype: qe
# description: Full system QE
# comment: SPV2 values from SPV02 branch of the Euclid MDB
# comment: MDB file: EUC_MDB_MISSIONCONFIGURATION-SPV02_2018-06-16T140000.00Z_01.01.xml
# comment: MDB variable: ExternalData.LSS.LSSTTotalTrans.y
# url: http://euclid.esac.esa.int/epdb/db/SPV02/
# reference: Euclid Consortium Mission Performance Document, V 2.0
# xref: 971.0 nm
# filter: y_LSST
# xunit: nm
908.5    0.000
908.6    0.001
908.7    0.001
908.8    0.002
908.9    0.003
909.0    0.004
909.1    0.004
909.2    0.005
909.3    0.006
909.4    0.006
909.5    0.007
909.6    0.008
909.7    0.009
909.8    0.009
909.9    0.010
910.0    0.011
910.1    0.012
910.2    0.012
910.3    0.013
910.4    0.014
910.5    0.014
910.6    0.015
910.7    0.016
910.8    0.017
910.9    0.017
911.0    0.018
911.1    0.019
911.2    0.020
911.3    0.020
911.4    0.021
911.5    0.022
911.6    0.022
911.7    0.023
911.8    0.024
911.9    0.024
912.0    0.025
912.1    0.026
912.2    0.027
912.3    0.027
912.4    0.028
912.5    0.029
912.6    0.029
912.7    0.030
912.8    0.031
912.9    0.031
913.0    0.032
913.1    0.032
913.2    0.033
913.3    0.033
913.4    0.034
913.5    0.034
913.6    0.036
913.7    0.037
913.8    0.039
913.9    0.040
914.0    0.042
914.1    0.044
914.2    0.045
914.3    0.047
914.4    0.049
914.5    0.051
914.6    0.052
914.7    0.054
914.8    0.055
914.9    0.056
915.0    0.057
915.1    0.058
915.2    0.059
915.3    0.060
915.4    0.060
915.5    0.061
915.6    0.063
915.7    0.064
915.8    0.066
915.9    0.067
916.0    0.069
916.1    0.071
916.2    0.073
916.3    0.075
916.4    0.078
916.5    0.080
916.6    0.081
916.7    0.083
916.8    0.084
916.9    0.086
917.0    0.087
917.1    0.088
917.2    0.089
917.3    0.090
917.4    0.090
917.5    0.091
917.6    0.092
917.7    0.093
917.8    0.094
917.9    0.095
918.0    0.097
918.1    0.099
918.2    0.100
918.3    0.102
918.4    0.104
918.5    0.106
918.6    0.108
918.7    0.110
918.8    0.113
918.9    0.115
919.0    0.117
919.1    0.118
919.2    0.120
919.3    0.122
919.4    0.123
919.5    0.125
919.6    0.127
919.7    0.128
919.8    0.130
919.9    0.131
920.0    0.132
920.1    0.134
920.2    0.136
920.3    0.138
920.4    0.140
920.5    0.142
920.6    0.143
920.7    0.144
920.8    0.146
920.9    0.147
921.0    0.148
921.1    0.149
921.2    0.150
921.3    0.151
921.4    0.152
921.5    0.153
921.6    0.155
921.7    0.156
921.8    0.158
921.9    0.159
922.0    0.160
922.1    0.162
922.2    0.164
922.3    0.165
922.4    0.167
922.5    0.169
922.6    0.170
922.7    0.172
922.8    0.173
922.9    0.174
923.0    0.176
923.1    0.177
923.2    0.178
923.3    0.179
923.4    0.180
923.5    0.182
923.6    0.183
923.7    0.184
923.8    0.185
923.9    0.186
924.0    0.187
924.1    0.188
924.2    0.189
924.3    0.191
924.4    0.192
924.5    0.193
924.6    0.194
924.7    0.195
924.8    0.197
924.9    0.198
925.0    0.199
925.1    0.201
925.2    0.202
925.3    0.204
925.4    0.205
925.5    0.207
925.6    0.208
925.7    0.210
925.8    0.211
925.9    0.213
926.0    0.214
926.1    0.216
926.2    0.217
926.3    0.218
926.4    0.220
926.5    0.221
926.6    0.223
926.7    0.224
926.8    0.226
926.9    0.228
927.0    0.229
927.1    0.229
927.2    0.229
927.3    0.229
927.4    0.229
927.5    0.229
927.6    0.229
927.7    0.228
927.8    0.228
927.9    0.227
928.0    0.227
928.1    0.227
928.2    0.228
928.3    0.229
928.4    0.230
928.5    0.231
928.6    0.231
928.7    0.232
928.8    0.233
928.9    0.233
929.0    0.234
929.1    0.234
929.2    0.234
929.3    0.234
929.4    0.234
929.5    0.234
929.6    0.233
929.7    0.232
929.8    0.231
929.9    0.230
930.0    0.229
930.1    0.228
930.2    0.227
930.3    0.226
930.4    0.225
930.5    0.224
930.6    0.223
930.7    0.222
930.8    0.221
930.9    0.220
931.0    0.220
931.1    0.218
931.2    0.217
931.3    0.216
931.4    0.214
931.5    0.213
931.6    0.210
931.7    0.206
931.8    0.203
931.9    0.199
932.0    0.196
932.1    0.195
932.2    0.194
932.3    0.193
932.4    0.192
932.5    0.192
932.6    0.193
932.7    0.194
932.8    0.195
932.9    0.196
933.0    0.197
933.1    0.197
933.2    0.196
933.3    0.196
933.4    0.195
933.5    0.194
933.6    0.191
933.7    0.187
933.8    0.183
933.9    0.179
934.0    0.175
934.1    0.173
934.2    0.172
934.3    0.171
934.4    0.170
934.5    0.169
934.6    0.175
934.7    0.181
934.8    0.187
934.9    0.193
935.0    0.199
935.1    0.202
935.2    0.204
935.3    0.206
935.4    0.208
935.5    0.210
935.6    0.209
935.7    0.208
935.8    0.206
935.9    0.205
936.0    0.203
936.1    0.204
936.2    0.205
936.3    0.206
936.4    0.207
936.5    0.208
936.6    0.208
936.7    0.207
936.8    0.206
936.9    0.205
937.0    0.204
937.1    0.206
937.2    0.209
937.3    0.211
937.4    0.214
937.5    0.216
937.6    0.217
937.7    0.218
937.8    0.219
937.9    0.220
938.0    0.220
938.1    0.221
938.2    0.222
938.3    0.223
938.4    0.224
938.5    0.225
938.6    0.230
938.7    0.236
938.8    0.242
938.9    0.248
939.0    0.254
939.1    0.260
939.2    0.266
939.3    0.272
939.4    0.278
939.5    0.284
939.6    0.283
939.7    0.282
939.8    0.281
939.9    0.279
940.0    0.278
940.1    0.275
940.2    0.271
940.3    0.268
940.4    0.264
940.5    0.261
940.6    0.260
940.7    0.260
940.8    0.260
940.9    0.259
941.0    0.259
941.1    0.261
941.2    0.263
941.3    0.264
941.4    0.266
941.5    0.268
941.6    0.267
941.7    0.267
941.8    0.266
941.9    0.265
942.0    0.265
942.1    0.260
942.2    0.254
942.3    0.249
942.4    0.244
942.5    0.239
942.6    0.235
942.7    0.231
942.8    0.227
942.9    0.223
943.0    0.219
943.1    0.222
943.2    0.225
943.3    0.228
943.4    0.231
943.5    0.233
943.6    0.231
943.7    0.228
943.8    0.226
943.9    0.223
944.0    0.221
944.1    0.219
944.2    0.216
944.3    0.214
944.4    0.212
944.5    0.210
944.6    0.215
944.7    0.220
944.8    0.226
944.9    0.231
945.0    0.236
945.1    0.237
945.2    0.238
945.3    0.239
945.4    0.240
945.5    0.241
945.6    0.237
945.7    0.234
945.8    0.231
945.9    0.228
946.0    0.224
946.1    0.226
946.2    0.227
946.3    0.228
946.4    0.229
946.5    0.230
946.6    0.233
946.7    0.236
946.8    0.239
946.9    0.242
947.0    0.245
947.1    0.245
947.2    0.244
947.3    0.243
947.4    0.243
947.5    0.242
947.6    0.238
947.7    0.234
947.8    0.229
947.9    0.225
948.0    0.221
948.1    0.222
948.2    0.224
948.3    0.226
948.4    0.228
948.5    0.229
948.6    0.235
948.7    0.241
948.8    0.247
948.9    0.253
949.0    0.259
949.1    0.256
949.2    0.252
949.3    0.249
949.4    0.246
949.5    0.243
949.6    0.238
949.7    0.233
949.8    0.229
949.9    0.224
950.0    0.219
950.1    0.223
950.2    0.226
950.3    0.229
950.4    0.232
950.5    0.235
950.6    0.241
950.7    0.247
950.8    0.253
950.9    0.259
951.0    0.264
951.1    0.263
951.2    0.262
951.3    0.261
951.4    0.260
951.5    0.259
951.6    0.253
951.7    0.246
951.8    0.240
951.9    0.233
952.0    0.227
952.1    0.225
952.2    0.223
952.3    0.222
952.4    0.220
952.5    0.218
952.6    0.221
952.7    0.225
952.8    0.228
952.9    0.231
953.0    0.235
953.1    0.237
953.2    0.239
953.3    0.241
953.4    0.243
953.5    0.245
953.6    0.245
953.7    0.246
953.8    0.246
953.9    0.247
954.0    0.247
954.1    0.246
954.2    0.245
954.3    0.244
954.4    0.243
954.5    0.243
954.6    0.243
954.7    0.243
954.8    0.243
954.9    0.244
955.0    0.244
955.1    0.243
955.2    0.242
955.3    0.241
955.4    0.240
955.5    0.239
955.6    0.237
955.7    0.236
955.8    0.235
955.9    0.234
956.0    0.233
956.1    0.233
956.2    0.233
956.3    0.233
956.4    0.234
956.5    0.234
956.6    0.234
956.7    0.235
956.8    0.235
956.9    0.236
957.0    0.236
957.1    0.240
957.2    0.243
957.3    0.247
957.4    0.251
957.5    0.255
957.6    0.255
957.7    0.255
957.8    0.255
957.9    0.255
958.0    0.255
958.1    0.253
958.2    0.251
958.3    0.250
958.4    0.248
958.5    0.246
958.6    0.244
958.7    0.242
958.8    0.240
958.9    0.239
959.0    0.237
959.1    0.235
959.2    0.234
959.3    0.233
959.4    0.231
959.5    0.230
959.6    0.232
959.7    0.233
959.8    0.235
959.9    0.237
960.0    0.239
960.1    0.241
960.2    0.242
960.3    0.244
960.4    0.246
960.5    0.247
960.6    0.248
960.7    0.249
960.8    0.251
960.9    0.252
961.0    0.253
961.1    0.254
961.2    0.255
961.3    0.256
961.4    0.257
961.5    0.258
961.6    0.257
961.7    0.255
961.8    0.254
961.9    0.252
962.0    0.251
962.1    0.248
962.2    0.246
962.3    0.243
962.4    0.241
962.5    0.238
962.6    0.240
962.7    0.242
962.8    0.244
962.9    0.245
963.0    0.247
963.1    0.249
963.2    0.251
963.3    0.253
963.4    0.254
963.5    0.256
963.6    0.255
963.7    0.254
963.8    0.254
963.9    0.253
964.0    0.252
964.1    0.252
964.2    0.251
964.3    0.251
964.4    0.251
964.5    0.251
964.6    0.252
964.7    0.252
964.8    0.253
964.9    0.254
965.0    0.254
965.1    0.256
965.2    0.257
965.3    0.258
965.4    0.259
965.5    0.261
965.6    0.259
965.7    0.258
965.8    0.257
965.9    0.256
966.0    0.254
966.1    0.252
966.2    0.250
966.3    0.248
966.4    0.245
966.5    0.243
966.6    0.244
966.7    0.245
966.8    0.246
966.9    0.246
967.0    0.247
967.1    0.251
967.2    0.255
967.3    0.258
967.4    0.262
967.5    0.266
967.6    0.267
967.7    0.268
967.8    0.269
967.9    0.270
968.0    0.271
968.1    0.270
968.2    0.269
968.3    0.267
968.4    0.266
968.5    0.265
968.6    0.265
968.7    0.266
968.8    0.266
968.9    0.267
969.0    0.267
969.1    0.268
969.2    0.268
969.3    0.269
969.4    0.269
969.5    0.270
969.6    0.269
969.7    0.268
969.8    0.267
969.9    0.266
970.0    0.266
970.1    0.265
970.2    0.265
970.3    0.264
970.4    0.264
970.5    0.263
970.6    0.264
970.7    0.264
970.8    0.264
970.9    0.265
971.0    0.265
971.1    0.264
971.2    0.264
971.3    0.263
971.4    0.262
971.5    0.261
971.6    0.260
971.7    0.260
971.8    0.259
971.9    0.259
972.0    0.258
972.1    0.258
972.2    0.257
972.3    0.257
972.4    0.256
972.5    0.256
972.6    0.255
972.7    0.253
972.8    0.252
972.9    0.251
973.0    0.250
973.1    0.250
973.2    0.249
973.3    0.248
973.4    0.247
973.5    0.246
973.6    0.246
973.7    0.245
973.8    0.245
973.9    0.244
974.0    0.244
974.1    0.243
974.2    0.242
974.3    0.242
974.4    0.241
974.5    0.240
974.6    0.239
974.7    0.238
974.8    0.238
974.9    0.237
975.0    0.236
975.1    0.236
975.2    0.236
975.3    0.236
975.4    0.236
975.5    0.235
975.6    0.235
975.7    0.234
975.8    0.234
975.9    0.233
976.0    0.233
976.1    0.233
976.2    0.233
976.3    0.233
976.4    0.233
976.5    0.233
976.6    0.234
976.7    0.235
976.8    0.236
976.9    0.237
977.0    0.238
977.1    0.238
977.2    0.239
977.3    0.239
977.4    0.239
977.5    0.240
977.6    0.239
977.7    0.238
977.8    0.237
977.9    0.236
978.0    0.235
978.1    0.235
978.2    0.234
978.3    0.233
978.4    0.233
978.5    0.232
978.6    0.232
978.7    0.231
978.8    0.231
978.9    0.230
979.0    0.230
979.1    0.229
979.2    0.229
979.3    0.228
979.4    0.228
979.5    0.227
979.6    0.227
979.7    0.227
979.8    0.227
979.9    0.227
980.0    0.227
980.1    0.227
980.2    0.226
980.3    0.226
980.4    0.226
980.5    0.226
980.6    0.227
980.7    0.228
980.8    0.229
980.9    0.229
981.0    0.230
981.1    0.230
981.2    0.230
981.3    0.230
981.4    0.230
981.5    0.230
981.6    0.229
981.7    0.229
981.8    0.228
981.9    0.227
982.0    0.227
982.1    0.226
982.2    0.225
982.3    0.224
982.4    0.224
982.5    0.223
982.6    0.222
982.7    0.222
982.8    0.221
982.9    0.221
983.0    0.220
983.1    0.221
983.2    0.221
983.3    0.221
983.4    0.221
983.5    0.221
983.6    0.221
983.7    0.221
983.8    0.221
983.9    0.221
984.0    0.221
984.1    0.221
984.2    0.220
984.3    0.219
984.4    0.219
984.5    0.218
984.6    0.217
984.7    0.217
984.8    0.216
984.9    0.215
985.0    0.215
985.1    0.215
985.2    0.214
985.3    0.214
985.4    0.214
985.5    0.214
985.6    0.214
985.7    0.214
985.8    0.214
985.9    0.213
986.0    0.213
986.1    0.213
986.2    0.213
986.3    0.212
986.4    0.212
986.5    0.212
986.6    0.211
986.7    0.211
986.8    0.210
986.9    0.210
987.0    0.209
987.1    0.209
987.2    0.208
987.3    0.208
987.4    0.207
987.5    0.207
987.6    0.207
987.7    0.206
987.8    0.206
987.9    0.206
988.0    0.205
988.1    0.205
988.2    0.205
988.3    0.205
988.4    0.205
988.5    0.204
988.6    0.204
988.7    0.203
988.8    0.203
988.9    0.203
989.0    0.202
989.1    0.202
989.2    0.201
989.3    0.201
989.4    0.200
989.5    0.200
989.6    0.199
989.7    0.199
989.8    0.198
989.9    0.198
990.0    0.197
990.1    0.197
990.2    0.197
990.3    0.197
990.4    0.196
990.5    0.196
990.6    0.196
990.7    0.195
990.8    0.195
990.9    0.195
991.0    0.195
991.1    0.194
991.2    0.194
991.3    0.194
991.4    0.193
991.5    0.193
991.6    0.193
991.7    0.192
991.8    0.192
991.9    0.192
992.0    0.192
992.1    0.191
992.2    0.191
992.3    0.191
992.4    0.190
992.5    0.190
992.6    0.189
992.7    0.189
992.8    0.189
992.9    0.188
993.0    0.188
993.1    0.188
993.2    0.187
993.3    0.187
993.4    0.187
993.5    0.187
993.6    0.186
993.7    0.186
993.8    0.186
993.9    0.186
994.0    0.186
994.1    0.185
994.2    0.185
994.3    0.185
994.4    0.184
994.5    0.184
994.6    0.184
994.7    0.183
994.8    0.183
994.9    0.183
995.0    0.182
995.1    0.182
995.2    0.182
995.3    0.181
995.4    0.181
995.5    0.181
995.6    0.180
995.7    0.180
995.8    0.180
995.9    0.179
996.0    0.179
996.1    0.179
996.2    0.179
996.3    0.178
996.4    0.178
996.5    0.178
996.6    0.177
996.7    0.177
996.8    0.177
996.9    0.177
997.0    0.176
997.1    0.176
997.2    0.176
997.3    0.175
997.4    0.175
997.5    0.175
997.6    0.174
997.7    0.174
997.8    0.174
997.9    0.173
998.0    0.173
998.1    0.173
998.2    0.172
998.3    0.172
998.4    0.172
998.5    0.171
998.6    0.171
998.7    0.171
998.8    0.170
998.9    0.170
999.0    0.170
999.1    0.169
999.2    0.169
999.3    0.169
999.4    0.168
999.5    0.168
999.6    0.168
999.7    0.167
999.8    0.167
999.9    0.167
1000.0    0.166
1000.1    0.166
1000.2    0.165
1000.3    0.165
1000.4    0.165
1000.5    0.164
1000.6    0.164
1000.7    0.164
1000.8    0.163
1000.9    0.163
1001.0    0.162
1001.1    0.162
1001.2    0.161
1001.3    0.161
1001.4    0.161
1001.5    0.160
1001.6    0.160
1001.7    0.159
1001.8    0.159
1001.9    0.159
1002.0    0.158
1002.1    0.158
1002.2    0.158
1002.3    0.157
1002.4    0.157
1002.5    0.156
1002.6    0.156
1002.7    0.156
1002.8    0.156
1002.9    0.155
1003.0    0.155
1003.1    0.155
1003.2    0.154
1003.3    0.154
1003.4    0.153
1003.5    0.153
1003.6    0.153
1003.7    0.152
1003.8    0.152
1003.9    0.151
1004.0    0.151
1004.1    0.151
1004.2    0.150
1004.3    0.150
1004.4    0.149
1004.5    0.149
1004.6    0.149
1004.7    0.148
1004.8    0.148
1004.9    0.147
1005.0    0.147
1005.1    0.146
1005.2    0.146
1005.3    0.146
1005.4    0.145
1005.5    0.145
1005.6    0.144
1005.7    0.144
1005.8    0.143
1005.9    0.143
1006.0    0.142
1006.1    0.142
1006.2    0.142
1006.3    0.141
1006.4    0.141
1006.5    0.140
1006.6    0.140
1006.7    0.140
1006.8    0.139
1006.9    0.139
1007.0    0.138
1007.1    0.138
1007.2    0.138
1007.3    0.137
1007.4    0.137
1007.5    0.136
1007.6    0.136
1007.7    0.135
1007.8    0.135
1007.9    0.134
1008.0    0.134
1008.1    0.133
1008.2    0.133
1008.3    0.133
1008.4    0.132
1008.5    0.132
1008.6    0.131
1008.7    0.131
1008.8    0.130
1008.9    0.130
1009.0    0.130
1009.1    0.129
1009.2    0.129
1009.3    0.128
1009.4    0.128
1009.5    0.127
1009.6    0.127
1009.7    0.127
1009.8    0.126
1009.9    0.126
1010.0    0.125
1010.1    0.125
1010.2    0.125
1010.3    0.124
1010.4    0.124
1010.5    0.124
1010.6    0.123
1010.7    0.123
1010.8    0.123
1010.9    0.122
1011.0    0.122
1011.1    0.122
1011.2    0.121
1011.3    0.121
1011.4    0.120
1011.5    0.120
1011.6    0.120
1011.7    0.119
1011.8    0.119
1011.9    0.118
1012.0    0.118
1012.1    0.118
1012.2    0.117
1012.3    0.117
1012.4    0.116
1012.5    0.116
1012.6    0.116
1012.7    0.115
1012.8    0.115
1012.9    0.114
1013.0    0.114
1013.1    0.114
1013.2    0.113
1013.3    0.113
1013.4    0.113
1013.5    0.112
1013.6    0.112
1013.7    0.112
1013.8    0.111
1013.9    0.111
1014.0    0.111
1014.1    0.110
1014.2    0.110
1014.3    0.110
1014.4    0.109
1014.5    0.109
1014.6    0.109
1014.7    0.108
1014.8    0.108
1014.9    0.108
1015.0    0.107
1015.1    0.107
1015.2    0.107
1015.3    0.106
1015.4    0.106
1015.5    0.106
1015.6    0.105
1015.7    0.105
1015.8    0.105
1015.9    0.104
1016.0    0.104
1016.1    0.104
1016.2    0.103
1016.3    0.103
1016.4    0.103
1016.5    0.102
1016.6    0.102
1016.7    0.102
1016.8    0.101
1016.9    0.101
1017.0    0.101
1017.1    0.100
1017.2    0.100
1017.3    0.099
1017.4    0.099
1017.5    0.099
1017.6    0.098
1017.7    0.098
1017.8    0.098
1017.9    0.097
1018.0    0.097
1018.1    0.097
1018.2    0.096
1018.3    0.096
1018.4    0.096
1018.5    0.096
1018.6    0.095
1018.7    0.095
1018.8    0.095
1018.9    0.094
1019.0    0.094
1019.1    0.094
1019.2    0.094
1019.3    0.093
1019.4    0.093
1019.5    0.093
1019.6    0.092
1019.7    0.092
1019.8    0.092
1019.9    0.092
1020.0    0.091
1020.1    0.091
1020.2    0.091
1020.3    0.090
1020.4    0.090
1020.5    0.090
1020.6    0.089
1020.7    0.089
1020.8    0.089
1020.9    0.088
1021.0    0.088
1021.1    0.088
1021.2    0.087
1021.3    0.087
1021.4    0.087
1021.5    0.087
1021.6    0.086
1021.7    0.086
1021.8    0.086
1021.9    0.085
1022.0    0.085
1022.1    0.085
1022.2    0.084
1022.3    0.084
1022.4    0.084
1022.5    0.083
1022.6    0.083
1022.7    0.083
1022.8    0.082
1022.9    0.082
1023.0    0.082
1023.1    0.081
1023.2    0.081
1023.3    0.081
1023.4    0.081
1023.5    0.080
1023.6    0.080
1023.7    0.080
1023.8    0.079
1023.9    0.079
1024.0    0.079
1024.1    0.078
1024.2    0.078
1024.3    0.078
1024.4    0.077
1024.5    0.077
1024.6    0.077
1024.7    0.076
1024.8    0.076
1024.9    0.076
1025.0    0.076
1025.1    0.075
1025.2    0.075
1025.3    0.075
1025.4    0.074
1025.5    0.074
1025.6    0.074
1025.7    0.073
1025.8    0.073
1025.9    0.073
1026.0    0.073
1026.1    0.072
1026.2    0.072
1026.3    0.072
1026.4    0.071
1026.5    0.071
1026.6    0.070
1026.7    0.070
1026.8    0.070
1026.9    0.069
1027.0    0.069
1027.1    0.069
1027.2    0.069
1027.3    0.068
1027.4    0.068
1027.5    0.068
1027.6    0.067
1027.7    0.067
1027.8    0.067
1027.9    0.067
1028.0    0.066
1028.1    0.066
1028.2    0.066
1028.3    0.065
1028.4    0.065
1028.5    0.065
1028.6    0.065
1028.7    0.064
1028.8    0.064
1028.9    0.064
1029.0    0.063
1029.1    0.063
1029.2    0.063
1029.3    0.062
1029.4    0.062
1029.5    0.062
1029.6    0.061
1029.7    0.061
1029.8    0.061
1029.9    0.060
1030.0    0.060
1030.1    0.060
1030.2    0.059
1030.3    0.059
1030.4    0.059
1030.5    0.059
1030.6    0.058
1030.7    0.058
1030.8    0.058
1030.9    0.057
1031.0    0.057
1031.1    0.057
1031.2    0.057
1031.3    0.056
1031.4    0.056
1031.5    0.056
1031.6    0.055
1031.7    0.055
1031.8    0.055
1031.9    0.055
1032.0    0.054
1032.1    0.054
1032.2    0.054
1032.3    0.053
1032.4    0.053
1032.5    0.053
1032.6    0.053
1032.7    0.052
1032.8    0.052
1032.9    0.052
1033.0    0.052
1033.1    0.051
1033.2    0.051
1033.3    0.051
1033.4    0.050
1033.5    0.050
1033.6    0.050
1033.7    0.050
1033.8    0.049
1033.9    0.049
1034.0    0.049
1034.1    0.048
1034.2    0.048
1034.3    0.048
1034.4    0.048
1034.5    0.048
1034.6    0.047
1034.7    0.047
1034.8    0.047
1034.9    0.047
1035.0    0.046
1035.1    0.046
1035.2    0.046
1035.3    0.046
1035.4    0.046
1035.5    0.045
1035.6    0.045
1035.7    0.045
1035.8    0.045
1035.9    0.044
1036.0    0.044
1036.1    0.044
1036.2    0.044
1036.3    0.044
1036.4    0.043
1036.5    0.043
1036.6    0.043
1036.7    0.043
1036.8    0.042
1036.9    0.042
1037.0    0.042
1037.1    0.042
1037.2    0.041
1037.3    0.041
1037.4    0.041
1037.5    0.041
1037.6    0.041
1037.7    0.040
1037.8    0.040
1037.9    0.040
1038.0    0.040
1038.1    0.039
1038.2    0.039
1038.3    0.039
1038.4    0.039
1038.5    0.039
1038.6    0.039
1038.7    0.038
1038.8    0.038
1038.9    0.038
1039.0    0.038
1039.1    0.038
1039.2    0.038
1039.3    0.037
1039.4    0.037
1039.5    0.037
1039.6    0.037
1039.7    0.037
1039.8    0.037
1039.9    0.036
1040.0    0.036
1040.1    0.036
1040.2    0.036
1040.3    0.036
1040.4    0.035
1040.5    0.035
1040.6    0.035
1040.7    0.035
1040.8    0.035
1040.9    0.035
1041.0    0.034
1041.1    0.034
1041.2    0.034
1041.3    0.034
1041.4    0.034
1041.5    0.034
1041.6    0.034
1041.7    0.034
1041.8    0.034
1041.9    0.033
1042.0    0.033
1042.1    0.033
1042.2    0.033
1042.3    0.033
1042.4    0.033
1042.5    0.032
1042.6    0.032
1042.7    0.032
1042.8    0.032
1042.9    0.032
1043.0    0.032
1043.1    0.032
1043.2    0.031
1043.3    0.031
1043.4    0.031
1043.5    0.031
1043.6    0.031
1043.7    0.031
1043.8    0.031
1043.9    0.031
1044.0    0.030
1044.1    0.030
1044.2    0.030
1044.3    0.030
1044.4    0.030
1044.5    0.030
1044.6    0.030
1044.7    0.030
1044.8    0.030
1044.9    0.029
1045.0    0.029
1045.1    0.029
1045.2    0.029
1045.3    0.029
1045.4    0.029
1045.5    0.029
1045.6    0.029
1045.7    0.029
1045.8    0.028
1045.9    0.028
1046.0    0.028
1046.1    0.028
1046.2    0.028
1046.3    0.028
1046.4    0.028
1046.5    0.028
1046.6    0.028
1046.7    0.028
1046.8    0.028
1046.9    0.028
1047.0    0.028
1047.1    0.027
1047.2    0.027
1047.3    0.027
1047.4    0.027
1047.5    0.027
1047.6    0.027
1047.7    0.027
1047.8    0.027
1047.9    0.027
1048.0    0.026
1048.1    0.026
1048.2    0.026
1048.3    0.026
1048.4    0.026
1048.5    0.026
1048.6    0.026
1048.7    0.026
1048.8    0.026
1048.9    0.025
1049.0    0.025
1049.1    0.025
1049.2    0.025
1049.3    0.025
1049.4    0.025
1049.5    0.025
1049.6    0.025
1049.7    0.025
1049.8    0.025
1049.9    0.025
1050.0    0.025
1050.1    0.025
1050.2    0.024
1050.3    0.024
1050.4    0.024
1050.5    0.024
1050.6    0.024
1050.7    0.024
1050.8    0.024
1050.9    0.024
1051.0    0.024
1051.1    0.024
1051.2    0.023
1051.3    0.023
1051.4    0.023
1051.5    0.023
1051.6    0.023
1051.7    0.023
1051.8    0.023
1051.9    0.023
1052.0    0.023
1052.1    0.023
1052.2    0.023
1052.3    0.023
1052.4    0.023
1052.5    0.022
1052.6    0.022
1052.7    0.022
1052.8    0.022
1052.9    0.022
1053.0    0.022
1053.1    0.022
1053.2    0.022
1053.3    0.022
1053.4    0.022
1053.5    0.022
1053.6    0.022
1053.7    0.021
1053.8    0.021
1053.9    0.021
1054.0    0.021
1054.1    0.021
1054.2    0.021
1054.3    0.021
1054.4    0.021
1054.5    0.021
1054.6    0.021
1054.7    0.021
1054.8    0.021
1054.9    0.021
1055.0    0.021
1055.1    0.021
1055.2    0.020
1055.3    0.020
1055.4    0.020
1055.5    0.020
1055.6    0.020
1055.7    0.020
1055.8    0.020
1055.9    0.020
1056.0    0.020
1056.1    0.019
1056.2    0.019
1056.3    0.019
1056.4    0.019
1056.5    0.019
1056.6    0.019
1056.7    0.019
1056.8    0.019
1056.9    0.019
1057.0    0.019
1057.1    0.019
1057.2    0.019
1057.3    0.019
1057.4    0.019
1057.5    0.019
1057.6    0.019
1057.7    0.019
1057.8    0.018
1057.9    0.018
1058.0    0.018
1058.1    0.018
1058.2    0.018
1058.3    0.018
1058.4    0.018
1058.5    0.018
1058.6    0.018
1058.7    0.018
1058.8    0.018
1058.9    0.018
1059.0    0.018
1059.1    0.018
1059.2    0.018
1059.3    0.018
1059.4    0.018
1059.5    0.018
1059.6    0.017
1059.7    0.017
1059.8    0.017
1059.9    0.017
1060.0    0.017
1060.1    0.017
1060.2    0.017
1060.3    0.017
1060.4    0.017
1060.5    0.017
1060.6    0.017
1060.7    0.017
1060.8    0.017
1060.9    0.017
1061.0    0.017
1061.1    0.017
1061.2    0.017
1061.3    0.016
1061.4    0.016
1061.5    0.016
1061.6    0.016
1061.7    0.016
1061.8    0.016
1061.9    0.016
1062.0    0.016
1062.1    0.016
1062.2    0.016
1062.3    0.016
1062.4    0.016
1062.5    0.016
1062.6    0.016
1062.7    0.016
1062.8    0.016
1062.9    0.016
1063.0    0.015
1063.1    0.015
1063.2    0.015
1063.3    0.015
1063.4    0.015
1063.5    0.015
1063.6    0.015
1063.7    0.015
1063.8    0.015
1063.9    0.015
1064.0    0.015
1064.1    0.015
1064.2    0.015
1064.3    0.015
1064.4    0.015
1064.5    0.015
1064.6    0.015
1064.7    0.015
1064.8    0.014
1064.9    0.014
1065.0    0.014
1065.1    0.014
1065.2    0.014
1065.3    0.014
1065.4    0.014
1065.5    0.014
1065.6    0.014
1065.7    0.014
1065.8    0.014
1065.9    0.014
1066.0    0.014
1066.1    0.014
1066.2    0.014
1066.3    0.014
1066.4    0.014
1066.5    0.014
1066.6    0.013
1066.7    0.013
1066.8    0.013
1066.9    0.013
1067.0    0.013
1067.1    0.013
1067.2    0.013
1067.3    0.013
1067.4    0.013
1067.5    0.013
1067.6    0.013
1067.7    0.013
1067.8    0.013
1067.9    0.013
1068.0    0.013
1068.1    0.013
1068.2    0.013
1068.3    0.013
1068.4    0.013
1068.5    0.013
1068.6    0.013
1068.7    0.013
1068.8    0.013
1068.9    0.013
1069.0    0.013
1069.1    0.013
1069.2    0.013
1069.3    0.013
1069.4    0.012
1069.5    0.012
1069.6    0.012
1069.7    0.012
1069.8    0.012
1069.9    0.012
1070.0    0.012
1070.1    0.012
1070.2    0.012
1070.3    0.012
1070.4    0.012
1070.5    0.012
1070.6    0.012
1070.7    0.012
1070.8    0.012
1070.9    0.012
1071.0    0.012
1071.1    0.012
1071.2    0.012
1071.3    0.012
1071.4    0.012
1071.5    0.012
1071.6    0.011
1071.7    0.011
1071.8    0.011
1071.9    0.011
1072.0    0.011
1072.1    0.011
1072.2    0.011
1072.3    0.011
1072.4    0.011
1072.5    0.011
1072.6    0.011
1072.7    0.011
1072.8    0.011
1072.9    0.010
1073.0    0.010
1073.1    0.010
1073.2    0.010
1073.3    0.010
1073.4    0.010
1073.5    0.010
1073.6    0.010
1073.7    0.010
1073.8    0.010
1073.9    0.010
1074.0    0.010
1074.1    0.009
1074.2    0.009
1074.3    0.009
1074.4    0.009
1074.5    0.009
1074.6    0.009
1074.7    0.009
1074.8    0.009
1074.9    0.009
1075.0    0.009
1075.1    0.009
1075.2    0.009
1075.3    0.009
1075.4    0.009
1075.5    0.009
1075.6    0.009
1075.7    0.009
1075.8    0.008
1075.9    0.008
1076.0    0.008
1076.1    0.008
1076.2    0.008
1076.3    0.008
1076.4    0.008
1076.5    0.008
1076.6    0.008
1076.7    0.008
1076.8    0.008
1076.9    0.008
1077.0    0.008
1077.1    0.008
1077.2    0.008
1077.3    0.008
1077.4    0.008
1077.5    0.007
1077.6    0.007
1077.7    0.007
1077.8    0.007
1077.9    0.007
1078.0    0.007
1078.1    0.007
1078.2    0.007
1078.3    0.007
1078.4    0.007
1078.5    0.007
1078.6    0.007
1078.7    0.006
1078.8    0.006
1078.9    0.006
1079.0    0.006
1079.1    0.006
1079.2    0.006
1079.3    0.006
1079.4    0.006
1079.5    0.006
1079.6    0.006
1079.7    0.006
1079.8    0.006
1079.9    0.006
1080.0    0.006
1080.1    0.006
1080.2    0.006
1080.3    0.006
1080.4    0.006
1080.5    0.006
1080.6    0.005
1080.7    0.005
1080.8    0.005
1080.9    0.005
1081.0    0.005
1081.1    0.005
1081.2    0.005
1081.3    0.005
1081.4    0.005
1081.5    0.005
1081.6    0.005
1081.7    0.005
1081.8    0.005
1081.9    0.005
1082.0    0.005
1082.1    0.005
1082.2    0.004
1082.3    0.004
1082.4    0.004
1082.5    0.004
1082.6    0.004
1082.7    0.004
1082.8    0.004
1082.9    0.004
1083.0    0.004
1083.1    0.004
1083.2    0.004
1083.3    0.004
1083.4    0.004
1083.5    0.004
1083.6    0.004
1083.7    0.004
1083.8    0.004
1083.9    0.004
1084.0    0.004
1084.1    0.004
1084.2    0.004
1084.3    0.004
1084.4    0.004
1084.5    0.004
1084.6    0.003
1084.7    0.003
1084.8    0.003
1084.9    0.003
1085.0    0.003
1085.1    0.003
1085.2    0.003
1085.3    0.003
1085.4    0.003
1085.5    0.003
1085.6    0.003
1085.7    0.003
1085.8    0.003
1085.9    0.003
1086.0    0.003
1086.1    0.003
1086.2    0.003
1086.3    0.003
1086.4    0.003
1086.5    0.003
1086.6    0.002
1086.7    0.002
1086.8    0.002
1086.9    0.002
1087.0    0.002
1087.1    0.002
1087.2    0.002
1087.3    0.002
1087.4    0.002
1087.5    0.002
1087.6    0.002
1087.7    0.002
1087.8    0.002
1087.9    0.002
1088.0    0.002
1088.1    0.002
1088.2    0.002
1088.3    0.002
1088.4    0.002
1088.5    0.002
1088.6    0.002
1088.7    0.002
1088.8    0.002
1088.9    0.002
1089.0    0.002
1089.1    0.002
1089.2    0.002
1089.3    0.002
1089.4    0.002
1089.5    0.001
1089.6    0.001
1089.7    0.001
1089.8    0.001
1089.9    0.001
1090.0    0.001
1090.1    0.001
1090.2    0.001
1090.3    0.001
1090.4    0.001
1090.5    0.001
1090.6    0.001
1090.7    0.001
1090.8    0.001
1090.9    0.001
1091.0    0.001
1091.1    0.001
1091.2    0.001
1091.3    0.001
1091.4    0.001
1091.5    0.001
1091.6    0.001
1091.7    0.001
1091.8    0.001
1091.9    0.001
1092.0    0.001
1092.1    0.001
1092.2    0.001
1092.3    0.001
1092.4    0.001
1092.5    0.001
1092.6    0.001
1092.7    0.001
1092.8    0.001
1092.9    0.001
1093.0    0.001
1093.1    0.001
1093.2    0.001
1093.3    0.001
1093.4    0.000
