# file: z_LSST.Euclid.pb
# instrument: Euclid
# system: AB
# xtype: wavelength
# ytype: qe
# description: Full system QE
# comment: SPV2 values from SPV02 branch of the Euclid MDB
# comment: MDB file: EUC_MDB_MISSIONCONFIGURATION-SPV02_2018-06-16T140000.00Z_01.01.xml
# comment: MDB variable: ExternalData.LSS.LSSTTotalTrans.z
# url: http://euclid.esac.esa.int/epdb/db/SPV02/
# reference: Euclid Consortium Mission Performance Document, V 2.0
# xref: 869.0 nm
# filter: z_LSST
# xunit: nm
803.0    0.000
803.1    0.001
803.2    0.002
803.3    0.003
803.4    0.004
803.5    0.004
803.6    0.005
803.7    0.006
803.8    0.007
803.9    0.008
804.0    0.009
804.1    0.010
804.2    0.011
804.3    0.011
804.4    0.012
804.5    0.013
804.6    0.014
804.7    0.015
804.8    0.016
804.9    0.017
805.0    0.018
805.1    0.018
805.2    0.019
805.3    0.020
805.4    0.021
805.5    0.022
805.6    0.023
805.7    0.024
805.8    0.025
805.9    0.026
806.0    0.026
806.1    0.027
806.2    0.028
806.3    0.029
806.4    0.030
806.5    0.031
806.6    0.032
806.7    0.033
806.8    0.033
806.9    0.034
807.0    0.035
807.1    0.036
807.2    0.037
807.3    0.038
807.4    0.039
807.5    0.040
807.6    0.040
807.7    0.041
807.8    0.042
807.9    0.043
808.0    0.044
808.1    0.046
808.2    0.047
808.3    0.049
808.4    0.051
808.5    0.053
808.6    0.054
808.7    0.056
808.8    0.058
808.9    0.060
809.0    0.061
809.1    0.063
809.2    0.065
809.3    0.067
809.4    0.068
809.5    0.070
809.6    0.072
809.7    0.074
809.8    0.075
809.9    0.077
810.0    0.079
810.1    0.081
810.2    0.082
810.3    0.084
810.4    0.086
810.5    0.088
810.6    0.089
810.7    0.091
810.8    0.093
810.9    0.095
811.0    0.096
811.1    0.098
811.2    0.100
811.3    0.101
811.4    0.103
811.5    0.105
811.6    0.106
811.7    0.108
811.8    0.110
811.9    0.111
812.0    0.113
812.1    0.115
812.2    0.116
812.3    0.118
812.4    0.120
812.5    0.122
812.6    0.123
812.7    0.125
812.8    0.126
812.9    0.128
813.0    0.129
813.1    0.131
813.2    0.132
813.3    0.133
813.4    0.134
813.5    0.136
813.6    0.137
813.7    0.139
813.8    0.140
813.9    0.142
814.0    0.143
814.1    0.145
814.2    0.146
814.3    0.148
814.4    0.150
814.5    0.151
814.6    0.153
814.7    0.154
814.8    0.155
814.9    0.157
815.0    0.158
815.1    0.159
815.2    0.160
815.3    0.162
815.4    0.163
815.5    0.164
815.6    0.165
815.7    0.167
815.8    0.168
815.9    0.169
816.0    0.170
816.1    0.172
816.2    0.173
816.3    0.175
816.4    0.176
816.5    0.177
816.6    0.179
816.7    0.182
816.8    0.184
816.9    0.186
817.0    0.188
817.1    0.190
817.2    0.191
817.3    0.193
817.4    0.195
817.5    0.196
817.6    0.197
817.7    0.198
817.8    0.199
817.9    0.200
818.0    0.201
818.1    0.203
818.2    0.205
818.3    0.207
818.4    0.210
818.5    0.212
818.6    0.214
818.7    0.216
818.8    0.218
818.9    0.220
819.0    0.223
819.1    0.224
819.2    0.226
819.3    0.228
819.4    0.229
819.5    0.231
819.6    0.233
819.7    0.234
819.8    0.236
819.9    0.238
820.0    0.239
820.1    0.242
820.2    0.245
820.3    0.248
820.4    0.251
820.5    0.254
820.6    0.257
820.7    0.259
820.8    0.262
820.9    0.265
821.0    0.268
821.1    0.269
821.2    0.271
821.3    0.272
821.4    0.274
821.5    0.276
821.6    0.277
821.7    0.278
821.8    0.279
821.9    0.280
822.0    0.281
822.1    0.280
822.2    0.279
822.3    0.279
822.4    0.278
822.5    0.277
822.6    0.276
822.7    0.274
822.8    0.272
822.9    0.271
823.0    0.269
823.1    0.272
823.2    0.275
823.3    0.278
823.4    0.281
823.5    0.284
823.6    0.289
823.7    0.294
823.8    0.299
823.9    0.304
824.0    0.309
824.1    0.312
824.2    0.315
824.3    0.318
824.4    0.321
824.5    0.324
824.6    0.326
824.7    0.328
824.8    0.330
824.9    0.332
825.0    0.334
825.1    0.336
825.2    0.337
825.3    0.339
825.4    0.340
825.5    0.341
825.6    0.343
825.7    0.344
825.8    0.345
825.9    0.347
826.0    0.348
826.1    0.351
826.2    0.353
826.3    0.356
826.4    0.358
826.5    0.361
826.6    0.363
826.7    0.365
826.8    0.367
826.9    0.369
827.0    0.371
827.1    0.371
827.2    0.371
827.3    0.371
827.4    0.370
827.5    0.370
827.6    0.371
827.7    0.371
827.8    0.372
827.9    0.372
828.0    0.373
828.1    0.375
828.2    0.378
828.3    0.380
828.4    0.382
828.5    0.385
828.6    0.387
828.7    0.388
828.8    0.390
828.9    0.391
829.0    0.391
829.1    0.393
829.2    0.394
829.3    0.395
829.4    0.396
829.5    0.397
829.6    0.399
829.7    0.400
829.8    0.402
829.9    0.404
830.0    0.405
830.1    0.406
830.2    0.408
830.3    0.409
830.4    0.410
830.5    0.411
830.6    0.413
830.7    0.414
830.8    0.416
830.9    0.418
831.0    0.419
831.1    0.420
831.2    0.421
831.3    0.422
831.4    0.422
831.5    0.423
831.6    0.423
831.7    0.423
831.8    0.423
831.9    0.423
832.0    0.422
832.1    0.424
832.2    0.426
832.3    0.426
832.4    0.427
832.5    0.428
832.6    0.429
832.7    0.430
832.8    0.431
832.9    0.432
833.0    0.433
833.1    0.433
833.2    0.433
833.3    0.433
833.4    0.432
833.5    0.432
833.6    0.432
833.7    0.432
833.8    0.433
833.9    0.433
834.0    0.433
834.1    0.433
834.2    0.434
834.3    0.435
834.4    0.436
834.5    0.436
834.6    0.437
834.7    0.437
834.8    0.437
834.9    0.437
835.0    0.438
835.1    0.437
835.2    0.437
835.3    0.437
835.4    0.437
835.5    0.437
835.6    0.437
835.7    0.437
835.8    0.437
835.9    0.437
836.0    0.437
836.1    0.437
836.2    0.437
836.3    0.437
836.4    0.437
836.5    0.437
836.6    0.437
836.7    0.438
836.8    0.438
836.9    0.438
837.0    0.438
837.1    0.438
837.2    0.438
837.3    0.438
837.4    0.438
837.5    0.439
837.6    0.439
837.7    0.439
837.8    0.439
837.9    0.439
838.0    0.439
838.1    0.439
838.2    0.439
838.3    0.439
838.4    0.439
838.5    0.439
838.6    0.439
838.7    0.439
838.8    0.439
838.9    0.439
839.0    0.439
839.1    0.439
839.2    0.439
839.3    0.439
839.4    0.439
839.5    0.439
839.6    0.439
839.7    0.440
839.8    0.440
839.9    0.440
840.0    0.440
840.1    0.440
840.2    0.440
840.3    0.439
840.4    0.439
840.5    0.439
840.6    0.439
840.7    0.439
840.8    0.439
840.9    0.439
841.0    0.439
841.1    0.439
841.2    0.439
841.3    0.439
841.4    0.439
841.5    0.439
841.6    0.439
841.7    0.439
841.8    0.439
841.9    0.439
842.0    0.439
842.1    0.440
842.2    0.440
842.3    0.440
842.4    0.440
842.5    0.440
842.6    0.440
842.7    0.440
842.8    0.440
842.9    0.440
843.0    0.440
843.1    0.440
843.2    0.440
843.3    0.440
843.4    0.440
843.5    0.440
843.6    0.440
843.7    0.440
843.8    0.440
843.9    0.440
844.0    0.440
844.1    0.440
844.2    0.440
844.3    0.440
844.4    0.440
844.5    0.440
844.6    0.440
844.7    0.440
844.8    0.440
844.9    0.440
845.0    0.440
845.1    0.440
845.2    0.441
845.3    0.441
845.4    0.441
845.5    0.441
845.6    0.441
845.7    0.441
845.8    0.441
845.9    0.441
846.0    0.441
846.1    0.441
846.2    0.440
846.3    0.440
846.4    0.440
846.5    0.440
846.6    0.440
846.7    0.440
846.8    0.440
846.9    0.440
847.0    0.440
847.1    0.440
847.2    0.440
847.3    0.440
847.4    0.441
847.5    0.441
847.6    0.440
847.7    0.440
847.8    0.440
847.9    0.440
848.0    0.440
848.1    0.440
848.2    0.440
848.3    0.440
848.4    0.440
848.5    0.440
848.6    0.440
848.7    0.441
848.8    0.441
848.9    0.441
849.0    0.441
849.1    0.441
849.2    0.441
849.3    0.441
849.4    0.441
849.5    0.441
849.6    0.441
849.7    0.441
849.8    0.440
849.9    0.440
850.0    0.440
850.1    0.440
850.2    0.440
850.3    0.440
850.4    0.441
850.5    0.441
850.6    0.441
850.7    0.441
850.8    0.441
850.9    0.441
851.0    0.441
851.1    0.441
851.2    0.440
851.3    0.440
851.4    0.440
851.5    0.440
851.6    0.440
851.7    0.441
851.8    0.441
851.9    0.441
852.0    0.441
852.1    0.441
852.2    0.441
852.3    0.441
852.4    0.441
852.5    0.441
852.6    0.441
852.7    0.441
852.8    0.441
852.9    0.442
853.0    0.442
853.1    0.442
853.2    0.442
853.3    0.442
853.4    0.442
853.5    0.442
853.6    0.442
853.7    0.441
853.8    0.441
853.9    0.441
854.0    0.441
854.1    0.441
854.2    0.441
854.3    0.441
854.4    0.441
854.5    0.441
854.6    0.441
854.7    0.442
854.8    0.442
854.9    0.442
855.0    0.442
855.1    0.442
855.2    0.442
855.3    0.442
855.4    0.442
855.5    0.442
855.6    0.442
855.7    0.443
855.8    0.443
855.9    0.443
856.0    0.443
856.1    0.443
856.2    0.443
856.3    0.443
856.4    0.443
856.5    0.443
856.6    0.443
856.7    0.443
856.8    0.443
856.9    0.443
857.0    0.443
857.1    0.443
857.2    0.443
857.3    0.443
857.4    0.443
857.5    0.443
857.6    0.443
857.7    0.443
857.8    0.443
857.9    0.443
858.0    0.443
858.1    0.443
858.2    0.443
858.3    0.443
858.4    0.443
858.5    0.443
858.6    0.443
858.7    0.443
858.8    0.443
858.9    0.443
859.0    0.443
859.1    0.443
859.2    0.443
859.3    0.443
859.4    0.443
859.5    0.443
859.6    0.443
859.7    0.443
859.8    0.443
859.9    0.444
860.0    0.444
860.1    0.444
860.2    0.443
860.3    0.443
860.4    0.443
860.5    0.443
860.6    0.443
860.7    0.443
860.8    0.443
860.9    0.443
861.0    0.443
861.1    0.443
861.2    0.443
861.3    0.443
861.4    0.443
861.5    0.443
861.6    0.443
861.7    0.443
861.8    0.443
861.9    0.443
862.0    0.443
862.1    0.443
862.2    0.443
862.3    0.443
862.4    0.443
862.5    0.444
862.6    0.444
862.7    0.444
862.8    0.443
862.9    0.443
863.0    0.443
863.1    0.443
863.2    0.444
863.3    0.444
863.4    0.444
863.5    0.444
863.6    0.444
863.7    0.444
863.8    0.444
863.9    0.444
864.0    0.444
864.1    0.444
864.2    0.444
864.3    0.444
864.4    0.444
864.5    0.444
864.6    0.444
864.7    0.444
864.8    0.444
864.9    0.444
865.0    0.444
865.1    0.444
865.2    0.444
865.3    0.444
865.4    0.444
865.5    0.444
865.6    0.444
865.7    0.444
865.8    0.444
865.9    0.444
866.0    0.444
866.1    0.444
866.2    0.444
866.3    0.444
866.4    0.444
866.5    0.444
866.6    0.444
866.7    0.444
866.8    0.444
866.9    0.444
867.0    0.444
867.1    0.444
867.2    0.444
867.3    0.444
867.4    0.444
867.5    0.444
867.6    0.444
867.7    0.443
867.8    0.443
867.9    0.443
868.0    0.443
868.1    0.443
868.2    0.443
868.3    0.443
868.4    0.443
868.5    0.443
868.6    0.443
868.7    0.443
868.8    0.444
868.9    0.444
869.0    0.444
869.1    0.444
869.2    0.444
869.3    0.444
869.4    0.443
869.5    0.443
869.6    0.444
869.7    0.444
869.8    0.444
869.9    0.444
870.0    0.444
870.1    0.444
870.2    0.444
870.3    0.444
870.4    0.444
870.5    0.444
870.6    0.444
870.7    0.443
870.8    0.443
870.9    0.443
871.0    0.443
871.1    0.443
871.2    0.443
871.3    0.443
871.4    0.443
871.5    0.443
871.6    0.443
871.7    0.443
871.8    0.443
871.9    0.443
872.0    0.443
872.1    0.443
872.2    0.443
872.3    0.442
872.4    0.442
872.5    0.442
872.6    0.442
872.7    0.442
872.8    0.442
872.9    0.442
873.0    0.442
873.1    0.442
873.2    0.442
873.3    0.442
873.4    0.442
873.5    0.442
873.6    0.442
873.7    0.442
873.8    0.442
873.9    0.442
874.0    0.442
874.1    0.442
874.2    0.442
874.3    0.442
874.4    0.442
874.5    0.442
874.6    0.442
874.7    0.442
874.8    0.442
874.9    0.442
875.0    0.442
875.1    0.441
875.2    0.441
875.3    0.441
875.4    0.441
875.5    0.441
875.6    0.441
875.7    0.441
875.8    0.441
875.9    0.441
876.0    0.441
876.1    0.441
876.2    0.441
876.3    0.441
876.4    0.441
876.5    0.441
876.6    0.441
876.7    0.441
876.8    0.441
876.9    0.441
877.0    0.441
877.1    0.441
877.2    0.441
877.3    0.441
877.4    0.441
877.5    0.441
877.6    0.441
877.7    0.441
877.8    0.441
877.9    0.441
878.0    0.441
878.1    0.441
878.2    0.441
878.3    0.441
878.4    0.440
878.5    0.440
878.6    0.440
878.7    0.440
878.8    0.440
878.9    0.440
879.0    0.440
879.1    0.440
879.2    0.440
879.3    0.440
879.4    0.440
879.5    0.440
879.6    0.440
879.7    0.441
879.8    0.441
879.9    0.441
880.0    0.441
880.1    0.441
880.2    0.441
880.3    0.441
880.4    0.441
880.5    0.441
880.6    0.441
880.7    0.441
880.8    0.441
880.9    0.441
881.0    0.441
881.1    0.441
881.2    0.441
881.3    0.441
881.4    0.441
881.5    0.441
881.6    0.441
881.7    0.441
881.8    0.441
881.9    0.440
882.0    0.440
882.1    0.440
882.2    0.440
882.3    0.440
882.4    0.440
882.5    0.440
882.6    0.440
882.7    0.440
882.8    0.440
882.9    0.440
883.0    0.439
883.1    0.439
883.2    0.439
883.3    0.439
883.4    0.439
883.5    0.439
883.6    0.439
883.7    0.439
883.8    0.439
883.9    0.439
884.0    0.439
884.1    0.439
884.2    0.439
884.3    0.439
884.4    0.439
884.5    0.439
884.6    0.439
884.7    0.439
884.8    0.438
884.9    0.438
885.0    0.438
885.1    0.438
885.2    0.438
885.3    0.438
885.4    0.437
885.5    0.437
885.6    0.437
885.7    0.437
885.8    0.437
885.9    0.436
886.0    0.436
886.1    0.436
886.2    0.436
886.3    0.436
886.4    0.436
886.5    0.436
886.6    0.436
886.7    0.436
886.8    0.436
886.9    0.436
887.0    0.436
887.1    0.436
887.2    0.436
887.3    0.436
887.4    0.436
887.5    0.436
887.6    0.436
887.7    0.436
887.8    0.435
887.9    0.435
888.0    0.435
888.1    0.435
888.2    0.435
888.3    0.435
888.4    0.435
888.5    0.435
888.6    0.435
888.7    0.435
888.8    0.436
888.9    0.436
889.0    0.436
889.1    0.436
889.2    0.436
889.3    0.435
889.4    0.435
889.5    0.435
889.6    0.435
889.7    0.435
889.8    0.434
889.9    0.434
890.0    0.434
890.1    0.434
890.2    0.434
890.3    0.433
890.4    0.433
890.5    0.432
890.6    0.432
890.7    0.432
890.8    0.432
890.9    0.432
891.0    0.432
891.1    0.431
891.2    0.431
891.3    0.431
891.4    0.431
891.5    0.431
891.6    0.430
891.7    0.430
891.8    0.430
891.9    0.430
892.0    0.430
892.1    0.429
892.2    0.429
892.3    0.429
892.4    0.428
892.5    0.428
892.6    0.427
892.7    0.427
892.8    0.426
892.9    0.425
893.0    0.425
893.1    0.424
893.2    0.424
893.3    0.423
893.4    0.423
893.5    0.422
893.6    0.422
893.7    0.422
893.8    0.422
893.9    0.422
894.0    0.421
894.1    0.421
894.2    0.420
894.3    0.419
894.4    0.419
894.5    0.418
894.6    0.417
894.7    0.416
894.8    0.414
894.9    0.413
895.0    0.412
895.1    0.411
895.2    0.409
895.3    0.408
895.4    0.406
895.5    0.405
895.6    0.403
895.7    0.402
895.8    0.401
895.9    0.400
896.0    0.399
896.1    0.398
896.2    0.396
896.3    0.395
896.4    0.394
896.5    0.392
896.6    0.392
896.7    0.391
896.8    0.391
896.9    0.390
897.0    0.389
897.1    0.390
897.2    0.391
897.3    0.392
897.4    0.393
897.5    0.394
897.6    0.394
897.7    0.395
897.8    0.395
897.9    0.396
898.0    0.396
898.1    0.393
898.2    0.390
898.3    0.386
898.4    0.383
898.5    0.380
898.6    0.375
898.7    0.371
898.8    0.367
898.9    0.362
899.0    0.358
899.1    0.360
899.2    0.362
899.3    0.364
899.4    0.365
899.5    0.367
899.6    0.370
899.7    0.373
899.8    0.376
899.9    0.378
900.0    0.381
900.1    0.380
900.2    0.379
900.3    0.378
900.4    0.377
900.5    0.376
900.6    0.376
900.7    0.376
900.8    0.376
900.9    0.376
901.0    0.377
901.1    0.377
901.2    0.378
901.3    0.379
901.4    0.379
901.5    0.380
901.6    0.380
901.7    0.379
901.8    0.379
901.9    0.379
902.0    0.378
902.1    0.378
902.2    0.377
902.3    0.376
902.4    0.376
902.5    0.375
902.6    0.376
902.7    0.377
902.8    0.378
902.9    0.379
903.0    0.380
903.1    0.383
903.2    0.385
903.3    0.388
903.4    0.391
903.5    0.393
903.6    0.395
903.7    0.397
903.8    0.399
903.9    0.400
904.0    0.402
904.1    0.402
904.2    0.401
904.3    0.401
904.4    0.400
904.5    0.400
904.6    0.399
904.7    0.399
904.8    0.398
904.9    0.398
905.0    0.397
905.1    0.397
905.2    0.397
905.3    0.397
905.4    0.397
905.5    0.397
905.6    0.396
905.7    0.396
905.8    0.395
905.9    0.395
906.0    0.394
906.1    0.392
906.2    0.390
906.3    0.388
906.4    0.386
906.5    0.384
906.6    0.381
906.7    0.379
906.8    0.377
906.9    0.375
907.0    0.372
907.1    0.371
907.2    0.370
907.3    0.370
907.4    0.369
907.5    0.368
907.6    0.367
907.7    0.367
907.8    0.367
907.9    0.366
908.0    0.366
908.1    0.366
908.2    0.366
908.3    0.366
908.4    0.366
908.5    0.367
908.6    0.367
908.7    0.367
908.8    0.367
908.9    0.366
909.0    0.366
909.1    0.367
909.2    0.367
909.3    0.367
909.4    0.367
909.5    0.366
909.6    0.366
909.7    0.365
909.8    0.365
909.9    0.364
910.0    0.363
910.1    0.362
910.2    0.361
910.3    0.359
910.4    0.358
910.5    0.356
910.6    0.356
910.7    0.356
910.8    0.357
910.9    0.357
911.0    0.357
911.1    0.357
911.2    0.356
911.3    0.356
911.4    0.355
911.5    0.355
911.6    0.353
911.7    0.351
911.8    0.350
911.9    0.348
912.0    0.346
912.1    0.346
912.2    0.346
912.3    0.346
912.4    0.347
912.5    0.347
912.6    0.344
912.7    0.341
912.8    0.338
912.9    0.334
913.0    0.331
913.1    0.327
913.2    0.324
913.3    0.320
913.4    0.317
913.5    0.313
913.6    0.313
913.7    0.314
913.8    0.314
913.9    0.314
914.0    0.314
914.1    0.315
914.2    0.316
914.3    0.317
914.4    0.318
914.5    0.318
914.6    0.316
914.7    0.314
914.8    0.312
914.9    0.309
915.0    0.307
915.1    0.302
915.2    0.297
915.3    0.292
915.4    0.287
915.5    0.283
915.6    0.282
915.7    0.281
915.8    0.281
915.9    0.280
916.0    0.279
916.1    0.281
916.2    0.283
916.3    0.284
916.4    0.286
916.5    0.287
916.6    0.286
916.7    0.285
916.8    0.283
916.9    0.282
917.0    0.280
917.1    0.277
917.2    0.273
917.3    0.270
917.4    0.266
917.5    0.263
917.6    0.260
917.7    0.258
917.8    0.256
917.9    0.254
918.0    0.251
918.1    0.251
918.2    0.251
918.3    0.251
918.4    0.251
918.5    0.251
918.6    0.251
918.7    0.251
918.8    0.251
918.9    0.251
919.0    0.251
919.1    0.250
919.2    0.249
919.3    0.248
919.4    0.247
919.5    0.245
919.6    0.244
919.7    0.242
919.8    0.241
919.9    0.239
920.0    0.238
920.1    0.237
920.2    0.236
920.3    0.235
920.4    0.234
920.5    0.233
920.6    0.232
920.7    0.230
920.8    0.228
920.9    0.226
921.0    0.225
921.1    0.223
921.2    0.220
921.3    0.218
921.4    0.216
921.5    0.214
921.6    0.212
921.7    0.211
921.8    0.209
921.9    0.207
922.0    0.206
922.1    0.205
922.2    0.204
922.3    0.202
922.4    0.201
922.5    0.200
922.6    0.199
922.7    0.197
922.8    0.195
922.9    0.194
923.0    0.192
923.1    0.190
923.2    0.188
923.3    0.187
923.4    0.185
923.5    0.183
923.6    0.181
923.7    0.180
923.8    0.178
923.9    0.176
924.0    0.174
924.1    0.173
924.2    0.171
924.3    0.169
924.4    0.167
924.5    0.166
924.6    0.164
924.7    0.163
924.8    0.161
924.9    0.160
925.0    0.158
925.1    0.157
925.2    0.155
925.3    0.154
925.4    0.153
925.5    0.151
925.6    0.150
925.7    0.148
925.8    0.147
925.9    0.145
926.0    0.144
926.1    0.143
926.2    0.141
926.3    0.140
926.4    0.138
926.5    0.137
926.6    0.135
926.7    0.134
926.8    0.133
926.9    0.131
927.0    0.130
927.1    0.128
927.2    0.126
927.3    0.123
927.4    0.121
927.5    0.119
927.6    0.117
927.7    0.114
927.8    0.112
927.9    0.110
928.0    0.107
928.1    0.106
928.2    0.104
928.3    0.103
928.4    0.101
928.5    0.100
928.6    0.098
928.7    0.096
928.8    0.095
928.9    0.093
929.0    0.092
929.1    0.090
929.2    0.088
929.3    0.086
929.4    0.085
929.5    0.083
929.6    0.081
929.7    0.079
929.8    0.077
929.9    0.075
930.0    0.073
930.1    0.071
930.2    0.069
930.3    0.067
930.4    0.065
930.5    0.064
930.6    0.062
930.7    0.060
930.8    0.059
930.9    0.057
931.0    0.055
931.1    0.054
931.2    0.052
931.3    0.050
931.4    0.049
931.5    0.047
931.6    0.045
931.7    0.043
931.8    0.041
931.9    0.039
932.0    0.038
932.1    0.036
932.2    0.035
932.3    0.034
932.4    0.033
932.5    0.031
932.6    0.031
932.7    0.030
932.8    0.029
932.9    0.028
933.0    0.027
933.1    0.026
933.2    0.025
933.3    0.024
933.4    0.023
933.5    0.022
933.6    0.021
933.7    0.020
933.8    0.019
933.9    0.018
934.0    0.017
934.1    0.017
934.2    0.016
934.3    0.016
934.4    0.015
934.5    0.014
934.6    0.015
934.7    0.015
934.8    0.015
934.9    0.015
935.0    0.015
935.1    0.014
935.2    0.014
935.3    0.014
935.4    0.013
935.5    0.013
935.6    0.013
935.7    0.012
935.8    0.011
935.9    0.011
936.0    0.010
936.1    0.010
936.2    0.010
936.3    0.009
936.4    0.009
936.5    0.008
936.6    0.008
936.7    0.007
936.8    0.007
936.9    0.007
937.0    0.006
937.1    0.006
937.2    0.005
937.3    0.005
937.4    0.005
937.5    0.004
937.6    0.004
937.7    0.003
937.8    0.003
937.9    0.003
938.0    0.002
938.1    0.002
938.2    0.001
938.3    0.001
938.4    0.000
