# file: z_PS.Euclid.pb
# instrument: Euclid
# system: AB
# xtype: wavelength
# ytype: qe
# description: Full system QE
# comment: SPV2 values from SPV02 branch of the Euclid MDB
# comment: MDB file: EUC_MDB_MISSIONCONFIGURATION-SPV02_2018-06-16T140000.00Z_01.01.xml
# comment: MDB variable: ExternalData.PAN.PanSTARRSTotalTrans.z
# url: http://euclid.esac.esa.int/epdb/db/SPV02/
# reference: Euclid Consortium Mission Performance Document, V 2.0
# xref: 868.0 nm
# filter: z_PS
# xunit: nm
784.0    0.000
785.0    0.001
786.0    0.001
787.0    0.001
788.0    0.001
789.0    0.001
790.0    0.001
791.0    0.001
792.0    0.001
793.0    0.001
794.0    0.001
795.0    0.001
796.0    0.001
797.0    0.002
798.0    0.003
799.0    0.003
800.0    0.004
801.0    0.005
802.0    0.005
803.0    0.006
804.0    0.008
805.0    0.010
806.0    0.013
807.0    0.017
808.0    0.023
809.0    0.030
810.0    0.040
811.0    0.052
812.0    0.067
813.0    0.085
814.0    0.106
815.0    0.134
816.0    0.167
817.0    0.211
818.0    0.263
819.0    0.330
820.0    0.389
821.0    0.460
822.0    0.503
823.0    0.495
824.0    0.550
825.0    0.561
826.0    0.561
827.0    0.570
828.0    0.554
829.0    0.568
830.0    0.567
831.0    0.566
832.0    0.558
833.0    0.569
834.0    0.565
835.0    0.572
836.0    0.572
837.0    0.578
838.0    0.580
839.0    0.580
840.0    0.580
841.0    0.578
842.0    0.576
843.0    0.575
844.0    0.573
845.0    0.573
846.0    0.573
847.0    0.572
848.0    0.570
849.0    0.570
850.0    0.569
851.0    0.568
852.0    0.567
853.0    0.565
854.0    0.563
855.0    0.562
856.0    0.561
857.0    0.559
858.0    0.558
859.0    0.558
860.0    0.559
861.0    0.559
862.0    0.560
863.0    0.559
864.0    0.558
865.0    0.558
866.0    0.557
867.0    0.556
868.0    0.555
869.0    0.554
870.0    0.552
871.0    0.551
872.0    0.550
873.0    0.549
874.0    0.547
875.0    0.546
876.0    0.545
877.0    0.544
878.0    0.543
879.0    0.541
880.0    0.538
881.0    0.536
882.0    0.531
883.0    0.528
884.0    0.525
885.0    0.522
886.0    0.519
887.0    0.518
888.0    0.516
889.0    0.515
890.0    0.513
891.0    0.513
892.0    0.512
893.0    0.509
894.0    0.507
895.0    0.501
896.0    0.490
897.0    0.474
898.0    0.477
899.0    0.440
900.0    0.471
901.0    0.457
902.0    0.464
903.0    0.452
904.0    0.477
905.0    0.474
906.0    0.467
907.0    0.449
908.0    0.450
909.0    0.454
910.0    0.447
911.0    0.452
912.0    0.445
913.0    0.436
914.0    0.427
915.0    0.431
916.0    0.409
917.0    0.420
918.0    0.387
919.0    0.386
920.0    0.359
921.0    0.330
922.0    0.281
923.0    0.236
924.0    0.185
925.0    0.140
926.0    0.103
927.0    0.076
928.0    0.052
929.0    0.037
930.0    0.025
931.0    0.018
932.0    0.012
933.0    0.009
934.0    0.007
935.0    0.005
936.0    0.004
937.0    0.003
938.0    0.003
939.0    0.003
940.0    0.003
941.0    0.002
942.0    0.001
943.0    0.001
944.0    0.001
945.0    0.001
946.0    0.001
947.0    0.001
948.0    0.001
949.0    0.001
950.0    0.000
951.0    0.001
952.0    0.000
