# file: MIPS24.MIPS.pb
# filter: MIPS24
# instrument: Spitzer/MIPS
# description: Telescope + Instrument
# reference: MIPS Instrument Handbook v2.0, sec 4.3.3
# comment: Passband from the file MIPSfiltsumm.txt from the SSC web site.
# comment: Bandwidth from table 8.1 of the SOM. Note this bandwidth is
# comment: not the bandwidth as used in the program, hence the difference 
# comment: with the internally computed one. This passband is on the 'MIPS'
# comment: system, that is w/r to a 10000K blackbody at the reference lambda
# comment: All reference values, except the bandwidth are from the MIPS Data
# comment: Handbook, V3.3
# comment: Checked by H. Aussel (herve dot aussel at cea dot fr)
# url: http://ssc.spitzer.caltech.edu/mips/calibrationfiles/spectralresponse/
# system: mips
# primary standard: vega_mips
# primary magnitude: 0.0
# bandwidth (xunit): 4.7
# monochromatic flux at 0 mag: 7.14E+00 Jy
# airmass: 0.0
# airmass function: space
# xtype: wavelength
# xunit: micron
# xref (xunit): 23.675
# ytype: RSR
18.005   0.0002370
18.068   0.0002310
18.131   0.0001730
18.194   0.0000117
18.258   0.0002290
18.323   0.0002280
18.388   0.0002370
18.453   0.0002410
18.519   0.0002450
18.586   0.0005730
18.652   0.0005950
18.720   0.0004010
18.788   0.0001350
18.856   0.0002750
18.925   0.0002770
18.994   0.0001850
19.064   0.0001900
19.134   0.0006440
19.205   0.0007640
19.277   0.0005570
19.348   0.0006570
19.421   0.0007360
19.494   0.0015730
19.567   0.0021290
19.642   0.0036270
19.716   0.0046620
19.792   0.0067100
19.867   0.0088350
19.944   0.0129140
20.021   0.0145000
20.098   0.0195320
20.177   0.0244680
20.255   0.0319530
20.335   0.0509730
20.415   0.0764470
20.496   0.1209290
20.577   0.1776560
20.659   0.2525540
20.742   0.3777770
20.825   0.5286590
20.909   0.7359240
20.993   0.8134630
21.079   0.8573350
21.165   0.8824770
21.252   0.9070910
21.339   0.9328280
21.427   0.9570090
21.516   0.9736340
21.606   0.9849570
21.696   0.9916630
21.787   0.9977490
21.879   1.0000000
21.972   0.9985220
22.065   0.9885640
22.160   0.9700580
22.255   0.9352050
22.351   0.9262580
22.448   0.8997960
22.545   0.8807980
22.644   0.8659250
22.743   0.8561140
22.843   0.8576990
22.944   0.8567790
23.046   0.8505090
23.149   0.8345200
23.253   0.8154730
23.358   0.7954730
23.463   0.7758750
23.570   0.7527640
23.678   0.7468080
23.786   0.7776530
23.896   0.7989430
24.006   0.8398770
24.118   0.8762650
24.231   0.9118190
24.345   0.9294310
24.459   0.9248760
24.575   0.9179780
24.692   0.8978060
24.810   0.8799480
24.930   0.8590960
25.050   0.8335340
25.172   0.8032160
25.295   0.7708900
25.419   0.7366090
25.544   0.6957040
25.670   0.6494790
25.798   0.6026610
25.927   0.5581910
26.057   0.5191740
26.189   0.4862090
26.322   0.4559740
26.456   0.4286930
26.592   0.4061710
26.729   0.3819860
26.867   0.3543780
27.007   0.3266820
27.149   0.2968380
27.292   0.2611780
27.436   0.2258780
27.582   0.1954450
27.729   0.1702260
27.878   0.1484450
28.029   0.1305550
28.181   0.1179450
28.335   0.1076760
28.491   0.0978270
28.649   0.0888690
28.808   0.0805120
28.969   0.0721240
29.131   0.0609970
29.296   0.0510860
29.462   0.0425250
29.631   0.0353840
29.801   0.0297640
29.973   0.0255960
30.148   0.0218070
30.324   0.0191900
30.502   0.0166060
30.683   0.0137790
30.865   0.0110020
31.050   0.0084760
31.237   0.0063810
31.427   0.0047580
31.618   0.0034710
31.812   0.0023940
32.009   0.0014820
32.207   0.0007270
