# file: g.SDSS.pb
# instrument: SDSS
# atmosphere: SDSS-2.5m
# ytype: qe
# filter: g
# airmass: 1.3
# xref: 470.3 nm
# reference: Doi et al., 2010, AJ 139. 1628
# xtype: wavelength
# url: http://adsabs.harvard.edu/abs/2010AJ....139.1628D
# description: Telescope + Instrument + Atmosphere
# system: AB
# xunit: Angstrom
 3600.0    0.000000
 3620.0    0.000113
 3640.0    0.000859
 3660.0    0.001565
 3680.0    0.002228
 3700.0    0.002076
 3720.0    0.001913
 3740.0    0.001868
 3760.0    0.002248
 3780.0    0.002940
 3800.0    0.004137
 3820.0    0.007166
 3840.0    0.013836
 3860.0    0.022401
 3880.0    0.032468
 3900.0    0.047811
 3920.0    0.063576
 3940.0    0.080857
 3960.0    0.099116
 3980.0    0.118615
 4000.0    0.142007
 4020.0    0.165299
 4040.0    0.181306
 4060.0    0.194421
 4080.0    0.207755
 4100.0    0.221225
 4120.0    0.234544
 4140.0    0.244637
 4160.0    0.253391
 4180.0    0.261506
 4200.0    0.267217
 4220.0    0.272791
 4240.0    0.278372
 4260.0    0.284033
 4280.0    0.289701
 4300.0    0.295449
 4320.0    0.301085
 4340.0    0.305813
 4360.0    0.310308
 4380.0    0.314715
 4400.0    0.319190
 4420.0    0.323610
 4440.0    0.328134
 4460.0    0.332607
 4480.0    0.336837
 4500.0    0.340108
 4520.0    0.343184
 4540.0    0.346274
 4560.0    0.349457
 4580.0    0.352531
 4600.0    0.355662
 4620.0    0.358539
 4640.0    0.361149
 4660.0    0.363563
 4680.0    0.366065
 4700.0    0.368495
 4720.0    0.370660
 4740.0    0.372830
 4760.0    0.375089
 4780.0    0.377236
 4800.0    0.378932
 4820.0    0.380714
 4840.0    0.382500
 4860.0    0.384337
 4880.0    0.386132
 4900.0    0.387931
 4920.0    0.389454
 4940.0    0.390896
 4960.0    0.392424
 4980.0    0.393955
 5000.0    0.395405
 5020.0    0.396752
 5040.0    0.398102
 5060.0    0.399453
 5080.0    0.400722
 5100.0    0.401777
 5120.0    0.401785
 5140.0    0.401201
 5160.0    0.399769
 5180.0    0.397864
 5200.0    0.395578
 5220.0    0.392061
 5240.0    0.382933
 5260.0    0.367580
 5280.0    0.339940
 5300.0    0.292048
 5320.0    0.236027
 5340.0    0.171850
 5360.0    0.119402
 5380.0    0.076927
 5400.0    0.050117
 5420.0    0.034113
 5440.0    0.023069
 5460.0    0.016216
 5480.0    0.011676
 5500.0    0.008245
 5520.0    0.005844
 5540.0    0.004385
 5560.0    0.003183
 5580.0    0.002066
 5600.0    0.001119
 5620.0    0.000172
 5640.0    0.000000
