# file: i.SDSS.pb
# instrument: SDSS
# atmosphere: SDSS-2.5m
# ytype: qe
# filter: i
# airmass: 1.3
# xref: 749.0 nm
# reference: Doi et al., 2010, AJ 139. 1628
# xtype: wavelength
# url: http://adsabs.harvard.edu/abs/2010AJ....139.1628D
# description: Telescope + Instrument + Atmosphere
# system: AB
# xunit: Angstrom
 6580.0    0.000000
 6600.0    0.000184
 6620.0    0.000737
 6640.0    0.001106
 6660.0    0.001568
 6680.0    0.002399
 6700.0    0.004245
 6720.0    0.007386
 6740.0    0.012099
 6760.0    0.020880
 6780.0    0.033737
 6800.0    0.051778
 6820.0    0.077145
 6840.0    0.104894
 6860.0    0.136726
 6880.0    0.167501
 6900.0    0.207322
 6920.0    0.251621
 6940.0    0.290109
 6960.0    0.326019
 6980.0    0.359275
 7000.0    0.381590
 7020.0    0.400036
 7040.0    0.414817
 7060.0    0.424910
 7080.0    0.432822
 7100.0    0.438364
 7120.0    0.443957
 7140.0    0.446617
 7160.0    0.429794
 7180.0    0.411547
 7200.0    0.419049
 7220.0    0.426436
 7240.0    0.424428
 7260.0    0.422047
 7280.0    0.419737
 7300.0    0.417367
 7320.0    0.422733
 7340.0    0.427860
 7360.0    0.424760
 7380.0    0.421893
 7400.0    0.419540
 7420.0    0.416916
 7440.0    0.414292
 7460.0    0.411668
 7480.0    0.408950
 7500.0    0.406233
 7520.0    0.403515
 7540.0    0.399579
 7560.0    0.395456
 7580.0    0.384568
 7600.0    0.233334
 7620.0    0.258934
 7640.0    0.244016
 7660.0    0.312887
 7680.0    0.371236
 7700.0    0.367343
 7720.0    0.363226
 7740.0    0.359068
 7760.0    0.354946
 7780.0    0.350783
 7800.0    0.346656
 7820.0    0.342584
 7840.0    0.340206
 7860.0    0.338052
 7880.0    0.335861
 7900.0    0.333798
 7920.0    0.331570
 7940.0    0.329435
 7960.0    0.327300
 7980.0    0.325482
 8000.0    0.323912
 8020.0    0.321964
 8040.0    0.319827
 8060.0    0.317440
 8080.0    0.314263
 8100.0    0.309669
 8120.0    0.295941
 8140.0    0.272835
 8160.0    0.247731
 8180.0    0.213301
 8200.0    0.166499
 8220.0    0.121489
 8240.0    0.078363
 8260.0    0.051823
 8280.0    0.032278
 8300.0    0.019008
 8320.0    0.013200
 8340.0    0.008806
 8360.0    0.005776
 8380.0    0.001894
 8400.0    0.000000
