# xtype: wavelength
# instrument: WISE
# url: http://wise2.ipac.caltech.edu/docs/release/prelim/expsup/sec4_3g.html#WISEZMA
# description: Telescope + Instrument
# ytype: rsr
# xref: 11.5608 micron
# comment: Reference wavelength from table 1 of Jarrett et al. (2011)
# comment: RSR from the file RSR-W1.EE.txt available from WISE Explanatory Supplement (see url)
# comment: RSR from the file RSR-W2.EE.txt available from WISE Explanatory Supplement (see url)
# comment: RSR from the file RSR-W3.EE.txt available from WISE Explanatory Supplement (see url)
# reference: Jarett et al. (2011), ApJ 735 112
# file: W3.WISE.pb
# filter: W3
# xunit: micron
2.530000    0.000000
2.540000    0.000000
2.550000    0.000000
2.560000    0.000000
2.570000    0.000000
2.580000    0.000000
2.590000    0.000000
2.600000    0.000000
2.610000    0.000000
2.620000    0.000000
2.630000    0.000000
2.640000    0.000000
2.650000    0.000000
2.660000    0.000000
2.670000    0.000000
2.680000    0.000000
2.690000    0.000000
2.700000    0.000000
2.710000    0.000000
2.720000    0.000000
2.730000    0.000000
2.740000    0.000000
2.750000    0.000000
2.760000    0.000000
2.770000    0.000000
2.780000    0.000000
2.790000    0.000000
2.800000    0.000000
2.810000    0.000000
2.820000    0.000000
2.830000    0.000000
2.840000    0.000000
2.850000    0.000000
2.860000    0.000000
2.870000    0.000000
2.880000    0.000000
2.890000    0.000000
2.900000    0.000000
2.910000    0.000000
2.920000    0.000000
2.930000    0.000000
2.940000    0.000000
2.950000    0.000000
2.960000    0.000000
2.970000    0.000000
2.980000    0.000000
2.990000    0.000000
3.000000    0.000000
3.010000    0.000000
3.020000    0.000000
3.030000    0.000000
3.040000    0.000000
3.050000    0.000000
3.060000    0.000000
3.070000    0.000000
3.080000    0.000000
3.090000    0.000000
3.100000    0.000000
3.110000    0.000000
3.120000    0.000000
3.130000    0.000000
3.140000    0.000000
3.150000    0.000000
3.160000    0.000000
3.170000    0.000000
3.180000    0.000000
3.190000    0.000000
3.200000    0.000000
3.210000    0.000000
3.220000    0.000000
3.230000    0.000000
3.240000    0.000000
3.250000    0.000000
3.260000    0.000000
3.270000    0.000000
3.280000    0.000000
3.290000    0.000000
3.300000    0.000000
3.310000    0.000000
3.320000    0.000000
3.330000    0.000000
3.340000    0.000000
3.350000    0.000000
3.360000    0.000000
3.370000    0.000000
3.380000    0.000000
3.390000    0.000000
3.400000    0.000000
3.410000    0.000000
3.420000    0.000000
3.430000    0.000000
3.440000    0.000000
3.450000    0.000000
3.460000    0.000000
3.470000    0.000000
3.480000    0.000000
3.490000    0.000000
3.500000    0.000000
3.510000    0.000000
3.520000    0.000000
3.530000    0.000000
3.540000    0.000000
3.550000    0.000000
3.560000    0.000000
3.570000    0.000000
3.580000    0.000000
3.590000    0.000000
3.600000    0.000000
3.610000    0.000000
3.620000    0.000000
3.630000    0.000000
3.640000    0.000000
3.650000    0.000000
3.660000    0.000000
3.670000    0.000000
3.680000    0.000000
3.690000    0.000000
3.700000    0.000000
3.710000    0.000000
3.720000    0.000000
3.730000    0.000000
3.740000    0.000000
3.750000    0.000000
3.760000    0.000000
3.770000    0.000000
3.780000    0.000000
3.790000    0.000000
3.800000    0.000000
3.810000    0.000000
3.820000    0.000000
3.830000    0.000000
3.840000    0.000000
3.850000    0.000000
3.860000    0.000000
3.870000    0.000000
3.880000    0.000000
3.890000    0.000000
3.900000    0.000000
3.910000    0.000000
3.920000    0.000000
3.930000    0.000000
3.940000    0.000000
3.950000    0.000000
3.960000    0.000000
3.970000    0.000000
3.980000    0.000000
3.990000    0.000000
4.000000    0.000000
4.010000    0.000000
4.020000    0.000000
4.030000    0.000000
4.040000    0.000000
4.050000    0.000000
4.060000    0.000000
4.070000    0.000000
4.080000    0.000000
4.090000    0.000000
4.100000    0.000000
4.110000    0.000000
4.120000    0.000000
4.130000    0.000000
4.140000    0.000000
4.150000    0.000000
4.160000    0.000000
4.170000    0.000000
4.180000    0.000000
4.190000    0.000000
4.200000    0.000000
4.210000    0.000000
4.220000    0.000000
4.230000    0.000000
4.240000    0.000000
4.250000    0.000000
4.260000    0.000000
4.270000    0.000000
4.280000    0.000000
4.290000    0.000000
4.300000    0.000000
4.310000    0.000000
4.320000    0.000000
4.330000    0.000000
4.340000    0.000000
4.350000    0.000000
4.360000    0.000000
4.370000    0.000000
4.380000    0.000000
4.390000    0.000000
4.400000    0.000000
4.410000    0.000000
4.420000    0.000000
4.430000    0.000000
4.440000    0.000000
4.450000    0.000000
4.460000    0.000000
4.470000    0.000000
4.480000    0.000000
4.490000    0.000000
4.500000    0.000000
4.510000    0.000000
4.520000    0.000000
4.530000    0.000000
4.540000    0.000000
4.550000    0.000000
4.560000    0.000000
4.570000    0.000000
4.580000    0.000000
4.590000    0.000000
4.600000    0.000000
4.610000    0.000000
4.620000    0.000000
4.630000    0.000000
4.640000    0.000000
4.650000    0.000000
4.660000    0.000000
4.670000    0.000000
4.680000    0.000000
4.690000    0.000000
4.700000    0.000000
4.710000    0.000000
4.720000    0.000000
4.730000    0.000000
4.740000    0.000000
4.750000    0.000000
4.760000    0.000000
4.770000    0.000000
4.780000    0.000000
4.790000    0.000000
4.800000    0.000000
4.810000    0.000000
4.820000    0.000000
4.830000    0.000000
4.840000    0.000000
4.850000    0.000000
4.860000    0.000000
4.870000    0.000000
4.880000    0.000000
4.890000    0.000000
4.900000    0.000000
4.910000    0.000000
4.920000    0.000000
4.930000    0.000000
4.940000    0.000000
4.950000    0.000000
4.960000    0.000000
4.970000    0.000000
4.980000    0.000000
4.990000    0.000000
5.000000    0.000000
5.010000    0.000000
5.020000    0.000000
5.030000    0.000000
5.040000    0.000000
5.050000    0.000000
5.060000    0.000000
5.070000    0.000000
5.080000    0.000000
5.090000    0.000000
5.100000    0.000000
5.110000    0.000000
5.120000    0.000000
5.130000    0.000000
5.140000    0.000000
5.150000    0.000000
5.160000    0.000000
5.170000    0.000000
5.180000    0.000000
5.190000    0.000000
5.200000    0.000000
5.210000    0.000000
5.220000    0.000000
5.230000    0.000000
5.240000    0.000000
5.250000    0.000000
5.260000    0.000000
5.270000    0.000000
5.280000    0.000000
5.290000    0.000000
5.300000    0.000000
5.310000    0.000000
5.320000    0.000000
5.330000    0.000000
5.340000    0.000000
5.350000    0.000000
5.360000    0.000000
5.370000    0.000000
5.380000    0.000000
5.390000    0.000000
5.400000    0.000000
5.410000    0.000000
5.420000    0.000000
5.430000    0.000000
5.440000    0.000000
5.450000    0.000000
5.460000    0.000000
5.470000    0.000000
5.480000    0.000000
5.490000    0.000000
5.500000    0.000000
5.510000    0.000000
5.520000    0.000000
5.530000    0.000000
5.540000    0.000000
5.550000    0.000000
5.560000    0.000000
5.570000    0.000000
5.580000    0.000000
5.590000    0.000000
5.600000    0.000000
5.610000    0.000000
5.620000    0.000000
5.630000    0.000000
5.640000    0.000000
5.650000    0.000000
5.660000    0.000000
5.670000    0.000000
5.680000    0.000000
5.690000    0.000000
5.700000    0.000000
5.710000    0.000000
5.720000    0.000000
5.730000    0.000000
5.740000    0.000000
5.750000    0.000000
5.760000    0.000000
5.770000    0.000000
5.780000    0.000000
5.790000    0.000000
5.800000    0.000000
5.810000    0.000000
5.820000    0.000000
5.830000    0.000000
5.840000    0.000000
5.850000    0.000000
5.860000    0.000000
5.870000    0.000000
5.880000    0.000000
5.890000    0.000000
5.900000    0.000000
5.910000    0.000000
5.920000    0.000000
5.930000    0.000000
5.940000    0.000000
5.950000    0.000000
5.960000    0.000000
5.970000    0.000000
5.980000    0.000000
5.990000    0.000000
6.000000    0.000000
6.010000    0.000000
6.020000    0.000000
6.030000    0.000000
6.040000    0.000000
6.050000    0.000000
6.060000    0.000000
6.070000    0.000000
6.080000    0.000000
6.090000    0.000000
6.100000    0.000000
6.110000    0.000000
6.120000    0.000000
6.130000    0.000000
6.140000    0.000000
6.150000    0.000000
6.160000    0.000000
6.170000    0.000000
6.180000    0.000000
6.190000    0.000001
6.200000    0.000001
6.210000    0.000001
6.220000    0.000001
6.230000    0.000002
6.240000    0.000001
6.250000    0.000002
6.260000    0.000002
6.270000    0.000002
6.280000    0.000002
6.290000    0.000001
6.300000    0.000001
6.310000    0.000001
6.320000    0.000001
6.330000    0.000001
6.340000    0.000002
6.350000    0.000001
6.360000    0.000000
6.370000    0.000000
6.380000    0.000000
6.390000    0.000002
6.400000    0.000002
6.410000    0.000001
6.420000    0.000001
6.430000    0.000002
6.440000    0.000000
6.450000    0.000000
6.460000    0.000000
6.470000    0.000001
6.480000    0.000000
6.490000    0.000000
6.500000    0.000000
6.510000    0.000002
6.520000    0.000004
6.530000    0.000003
6.540000    0.000001
6.550000    0.000000
6.560000    0.000000
6.570000    0.000000
6.580000    0.000000
6.590000    0.000000
6.600000    0.000000
6.610000    0.000000
6.620000    0.000000
6.630000    0.000000
6.640000    0.000000
6.650000    0.000000
6.660000    0.000000
6.670000    0.000000
6.680000    0.000000
6.690000    0.000000
6.700000    0.000000
6.710000    0.000000
6.720000    0.000000
6.730000    0.000000
6.740000    0.000004
6.750000    0.000000
6.760000    0.000003
6.770000    0.000003
6.780000    0.000001
6.790000    0.000005
6.800000    0.000001
6.810000    0.000007
6.820000    0.000013
6.830000    0.000010
6.840000    0.000013
6.850000    0.000009
6.860000    0.000003
6.870000    0.000003
6.880000    0.000011
6.890000    0.000015
6.900000    0.000020
6.910000    0.000004
6.920000    0.000019
6.930000    0.000004
6.940000    0.000003
6.950000    0.000003
6.960000    0.000004
6.970000    0.000004
6.980000    0.000013
6.990000    0.000004
7.000000    0.000003
7.010000    0.000013
7.020000    0.000000
7.030000    0.000000
7.040000    0.000001
7.050000    0.000000
7.060000    0.000003
7.070000    0.000000
7.080000    0.000000
7.090000    0.000000
7.100000    0.000005
7.110000    0.000000
7.120000    0.000000
7.130000    0.000000
7.140000    0.000000
7.150000    0.000000
7.160000    0.000012
7.170000    0.000000
7.180000    0.000001
7.190000    0.000001
7.200000    0.000028
7.210000    0.001720
7.220000    0.001695
7.230000    0.002120
7.240000    0.002230
7.250000    0.002056
7.260000    0.002160
7.270000    0.001918
7.280000    0.001155
7.290000    0.001644
7.300000    0.002689
7.310000    0.003371
7.320000    0.003592
7.330000    0.003522
7.340000    0.003774
7.350000    0.003684
7.360000    0.003335
7.370000    0.003334
7.380000    0.003173
7.390000    0.003379
7.400000    0.003660
7.410000    0.004279
7.420000    0.005431
7.430000    0.007114
7.440000    0.009252
7.450000    0.011710
7.460000    0.014421
7.470000    0.017429
7.480000    0.021233
7.490000    0.026207
7.500000    0.033257
7.510000    0.043132
7.520000    0.056946
7.530000    0.075682
7.540000    0.100100
7.550000    0.129790
7.560000    0.164320
7.570000    0.200060
7.580000    0.231020
7.590000    0.254820
7.600000    0.268930
7.610000    0.273040
7.620000    0.268500
7.630000    0.258810
7.640000    0.246570
7.650000    0.235550
7.660000    0.225770
7.670000    0.218490
7.680000    0.212450
7.690000    0.208930
7.700000    0.207930
7.710000    0.208200
7.720000    0.208470
7.730000    0.210010
7.740000    0.211560
7.750000    0.211830
7.760000    0.213380
7.770000    0.214940
7.780000    0.217780
7.790000    0.221900
7.800000    0.226040
7.810000    0.230190
7.820000    0.234350
7.830000    0.238520
7.840000    0.242690
7.850000    0.245590
7.860000    0.248490
7.870000    0.250100
7.880000    0.251720
7.890000    0.253330
7.900000    0.256260
7.910000    0.257880
7.920000    0.260820
7.930000    0.266370
7.940000    0.270630
7.950000    0.276210
7.960000    0.283110
7.970000    0.291340
7.980000    0.299590
7.990000    0.306540
8.000000    0.312190
8.010000    0.316540
8.020000    0.320900
8.030000    0.323940
8.040000    0.326990
8.050000    0.328720
8.060000    0.329130
8.070000    0.330870
8.080000    0.331280
8.090000    0.334350
8.100000    0.336100
8.110000    0.336510
8.120000    0.336930
8.130000    0.336010
8.140000    0.333740
8.150000    0.331460
8.160000    0.327840
8.170000    0.324210
8.180000    0.321910
8.190000    0.320950
8.200000    0.318650
8.210000    0.317680
8.220000    0.315360
8.230000    0.314390
8.240000    0.313420
8.250000    0.311080
8.260000    0.307380
8.270000    0.302300
8.280000    0.297210
8.290000    0.292110
8.300000    0.291100
8.310000    0.291450
8.320000    0.291800
8.330000    0.293520
8.340000    0.293870
8.350000    0.292850
8.360000    0.291830
8.370000    0.292180
8.380000    0.293900
8.390000    0.297020
8.400000    0.300140
8.410000    0.301880
8.420000    0.305010
8.430000    0.308150
8.440000    0.311300
8.450000    0.314450
8.460000    0.319000
8.470000    0.323560
8.480000    0.328130
8.490000    0.332710
8.500000    0.337300
8.510000    0.341900
8.520000    0.345110
8.530000    0.348320
8.540000    0.351540
8.550000    0.354770
8.560000    0.358010
8.570000    0.359840
8.580000    0.361670
8.590000    0.362090
8.600000    0.361090
8.610000    0.360100
8.620000    0.359100
8.630000    0.358090
8.640000    0.355660
8.650000    0.354650
8.660000    0.353630
8.670000    0.352610
8.680000    0.351590
8.690000    0.349130
8.700000    0.348100
8.710000    0.345630
8.720000    0.344600
8.730000    0.343550
8.740000    0.339630
8.750000    0.332810
8.760000    0.317330
8.770000    0.290250
8.780000    0.253000
8.790000    0.217100
8.800000    0.197060
8.810000    0.203090
8.820000    0.228010
8.830000    0.261710
8.840000    0.291120
8.850000    0.311850
8.860000    0.323870
8.870000    0.331540
8.880000    0.336300
8.890000    0.341070
8.900000    0.345850
8.910000    0.350640
8.920000    0.353970
8.930000    0.357310
8.940000    0.359180
8.950000    0.359580
8.960000    0.361460
8.970000    0.363340
8.980000    0.363740
8.990000    0.365630
9.000000    0.366030
9.010000    0.364960
9.020000    0.363880
9.030000    0.362790
9.040000    0.361710
9.050000    0.360620
9.060000    0.361020
9.070000    0.362910
9.080000    0.363310
9.090000    0.365200
9.100000    0.367100
9.110000    0.370510
9.120000    0.370910
9.130000    0.372820
9.140000    0.373230
9.150000    0.372130
9.160000    0.371030
9.170000    0.368420
9.180000    0.367310
9.190000    0.364680
9.200000    0.363560
9.210000    0.363960
9.220000    0.362840
9.230000    0.363230
9.240000    0.362100
9.250000    0.362490
9.260000    0.359840
9.270000    0.360230
9.280000    0.359090
9.290000    0.359470
9.300000    0.361390
9.310000    0.361780
9.320000    0.363700
9.330000    0.364090
9.340000    0.364480
9.350000    0.366410
9.360000    0.366800
9.370000    0.365650
9.380000    0.366040
9.390000    0.366430
9.400000    0.368370
9.410000    0.368760
9.420000    0.370710
9.430000    0.371100
9.440000    0.373050
9.450000    0.375000
9.460000    0.376950
9.470000    0.378910
9.480000    0.382430
9.490000    0.385960
9.500000    0.389500
9.510000    0.393040
9.520000    0.395020
9.530000    0.395440
9.540000    0.395850
9.550000    0.394690
9.560000    0.391960
9.570000    0.390790
9.580000    0.388050
9.590000    0.385290
9.600000    0.382530
9.610000    0.379770
9.620000    0.378580
9.630000    0.377390
9.640000    0.377780
9.650000    0.379760
9.660000    0.381740
9.670000    0.385320
9.680000    0.387310
9.690000    0.390910
9.700000    0.392910
9.710000    0.393310
9.720000    0.393720
9.730000    0.394120
9.740000    0.392920
9.750000    0.391720
9.760000    0.392120
9.770000    0.392520
9.780000    0.392930
9.790000    0.394940
9.800000    0.396960
9.810000    0.398980
9.820000    0.401000
9.830000    0.403030
9.840000    0.405060
9.850000    0.407090
9.860000    0.409130
9.870000    0.411170
9.880000    0.413210
9.890000    0.415260
9.900000    0.418940
9.910000    0.422630
9.920000    0.427950
9.930000    0.431650
9.940000    0.437000
9.950000    0.440710
9.960000    0.444440
9.970000    0.448170
9.980000    0.450260
9.990000    0.454000
10.000000    0.456100
10.010000    0.459850
10.020000    0.465260
10.030000    0.469030
10.040000    0.474460
10.050000    0.481550
10.060000    0.488660
10.070000    0.495770
10.080000    0.501240
10.090000    0.508390
10.100000    0.515540
10.110000    0.521050
10.120000    0.526560
10.130000    0.532090
10.140000    0.535950
10.150000    0.539820
10.160000    0.543700
10.170000    0.547580
10.180000    0.548120
10.190000    0.548660
10.200000    0.547520
10.210000    0.544690
10.220000    0.541860
10.230000    0.539020
10.240000    0.536180
10.250000    0.535010
10.260000    0.532160
10.270000    0.527600
10.280000    0.524730
10.290000    0.520160
10.300000    0.517270
10.310000    0.512680
10.320000    0.511480
10.330000    0.510270
10.340000    0.509070
10.350000    0.509560
10.360000    0.510050
10.370000    0.510540
10.380000    0.511040
10.390000    0.509820
10.400000    0.508600
10.410000    0.507370
10.420000    0.506140
10.430000    0.504910
10.440000    0.501960
10.450000    0.502440
10.460000    0.501200
10.470000    0.501670
10.480000    0.502150
10.490000    0.504360
10.500000    0.506570
10.510000    0.508780
10.520000    0.511000
10.530000    0.511480
10.540000    0.513710
10.550000    0.515930
10.560000    0.518160
10.570000    0.520390
10.580000    0.524370
10.590000    0.526610
10.600000    0.530590
10.610000    0.532840
10.620000    0.535090
10.630000    0.537350
10.640000    0.539600
10.650000    0.541860
10.660000    0.544130
10.670000    0.546400
10.680000    0.550420
10.690000    0.552700
10.700000    0.553220
10.710000    0.555500
10.720000    0.556020
10.730000    0.554770
10.740000    0.553520
10.750000    0.552260
10.760000    0.551000
10.770000    0.549740
10.780000    0.548480
10.790000    0.547210
10.800000    0.547720
10.810000    0.548230
10.820000    0.550510
10.830000    0.552810
10.840000    0.555100
10.850000    0.557400
10.860000    0.559700
10.870000    0.560220
10.880000    0.558940
10.890000    0.557660
10.900000    0.556380
10.910000    0.553300
10.920000    0.550210
10.930000    0.548910
10.940000    0.545810
10.950000    0.542700
10.960000    0.541400
10.970000    0.540080
10.980000    0.538770
10.990000    0.539260
11.000000    0.539750
11.010000    0.540240
11.020000    0.542540
11.030000    0.544850
11.040000    0.547160
11.050000    0.547660
11.060000    0.548160
11.070000    0.546830
11.080000    0.545500
11.090000    0.545990
11.100000    0.544660
11.110000    0.545150
11.120000    0.543810
11.130000    0.544290
11.140000    0.544780
11.150000    0.543440
11.160000    0.543920
11.170000    0.540730
11.180000    0.539380
11.190000    0.536170
11.200000    0.532960
11.210000    0.529750
11.220000    0.526530
11.230000    0.523300
11.240000    0.521910
11.250000    0.520520
11.260000    0.519130
11.270000    0.519590
11.280000    0.521910
11.290000    0.522380
11.300000    0.524700
11.310000    0.527030
11.320000    0.531220
11.330000    0.533550
11.340000    0.535890
11.350000    0.538230
11.360000    0.540580
11.370000    0.541050
11.380000    0.543400
11.390000    0.543880
11.400000    0.546240
11.410000    0.546720
11.420000    0.549070
11.430000    0.551440
11.440000    0.553800
11.450000    0.556170
11.460000    0.558550
11.470000    0.562810
11.480000    0.565190
11.490000    0.569470
11.500000    0.571860
11.510000    0.576140
11.520000    0.580440
11.530000    0.584740
11.540000    0.589050
11.550000    0.593360
11.560000    0.597680
11.570000    0.600100
11.580000    0.602530
11.590000    0.604960
11.600000    0.605480
11.610000    0.607910
11.620000    0.608440
11.630000    0.610880
11.640000    0.611400
11.650000    0.613840
11.660000    0.614370
11.670000    0.616820
11.680000    0.617350
11.690000    0.617880
11.700000    0.618410
11.710000    0.617010
11.720000    0.615600
11.730000    0.612270
11.740000    0.608920
11.750000    0.607510
11.760000    0.604150
11.770000    0.600790
11.780000    0.599360
11.790000    0.597930
11.800000    0.596490
11.810000    0.597000
11.820000    0.595550
11.830000    0.596060
11.840000    0.596560
11.850000    0.595110
11.860000    0.593660
11.870000    0.592210
11.880000    0.590750
11.890000    0.589290
11.900000    0.585870
11.910000    0.584400
11.920000    0.582930
11.930000    0.581450
11.940000    0.579970
11.950000    0.580460
11.960000    0.578980
11.970000    0.579460
11.980000    0.579940
11.990000    0.578450
12.000000    0.578940
12.010000    0.577440
12.020000    0.575940
12.030000    0.574440
12.040000    0.572940
12.050000    0.571430
12.060000    0.567930
12.070000    0.566410
12.080000    0.562910
12.090000    0.563370
12.100000    0.561850
12.110000    0.562310
12.120000    0.562770
12.130000    0.565240
12.140000    0.567700
12.150000    0.570170
12.160000    0.572640
12.170000    0.575120
12.180000    0.577590
12.190000    0.580070
12.200000    0.584570
12.210000    0.585050
12.220000    0.587540
12.230000    0.590030
12.240000    0.590520
12.250000    0.593020
12.260000    0.593500
12.270000    0.593980
12.280000    0.596490
12.290000    0.596980
12.300000    0.599490
12.310000    0.602000
12.320000    0.606550
12.330000    0.611100
12.340000    0.615660
12.350000    0.620220
12.360000    0.624800
12.370000    0.629380
12.380000    0.633960
12.390000    0.640590
12.400000    0.645200
12.410000    0.651850
12.420000    0.658510
12.430000    0.663130
12.440000    0.669810
12.450000    0.674450
12.460000    0.681140
12.470000    0.685800
12.480000    0.690460
12.490000    0.693070
12.500000    0.695680
12.510000    0.698300
12.520000    0.700920
12.530000    0.699410
12.540000    0.699970
12.550000    0.698460
12.560000    0.696950
12.570000    0.695440
12.580000    0.693920
12.590000    0.692400
12.600000    0.692950
12.610000    0.693500
12.620000    0.694050
12.630000    0.696680
12.640000    0.699310
12.650000    0.701940
12.660000    0.704580
12.670000    0.704930
12.680000    0.707580
12.690000    0.708130
12.700000    0.708690
12.710000    0.709250
12.720000    0.709810
12.730000    0.710580
12.740000    0.711130
12.750000    0.711690
12.760000    0.714350
12.770000    0.714910
12.780000    0.717580
12.790000    0.720240
12.800000    0.722910
12.810000    0.725590
12.820000    0.730380
12.830000    0.735170
12.840000    0.739970
12.850000    0.744780
12.860000    0.751710
12.870000    0.756540
12.880000    0.761360
12.890000    0.768320
12.900000    0.771040
12.910000    0.775890
12.920000    0.778620
12.930000    0.781350
12.940000    0.781960
12.950000    0.784690
12.960000    0.785300
12.970000    0.783770
12.980000    0.784370
12.990000    0.784980
13.000000    0.785580
13.010000    0.786190
13.020000    0.786790
13.030000    0.789540
13.040000    0.792290
13.050000    0.795050
13.060000    0.797810
13.070000    0.802730
13.080000    0.809800
13.090000    0.814730
13.100000    0.821820
13.110000    0.828930
13.120000    0.836040
13.130000    0.843160
13.140000    0.848130
13.150000    0.855270
13.160000    0.862430
13.170000    0.867420
13.180000    0.872420
13.190000    0.877420
13.200000    0.882430
13.210000    0.887450
13.220000    0.890300
13.230000    0.893150
13.240000    0.896010
13.250000    0.898870
13.260000    0.901730
13.270000    0.904590
13.280000    0.905280
13.290000    0.905960
13.300000    0.906640
13.310000    0.907320
13.320000    0.905810
13.330000    0.904290
13.340000    0.900580
13.350000    0.899060
13.360000    0.897530
13.370000    0.893800
13.380000    0.892260
13.390000    0.890730
13.400000    0.889190
13.410000    0.889850
13.420000    0.890510
13.430000    0.891180
13.440000    0.891840
13.450000    0.894720
13.460000    0.895380
13.470000    0.898270
13.480000    0.898930
13.490000    0.901820
13.500000    0.902490
13.510000    0.903160
13.520000    0.903830
13.530000    0.904500
13.540000    0.905160
13.550000    0.905830
13.560000    0.906500
13.570000    0.909400
13.580000    0.910070
13.590000    0.912980
13.600000    0.913650
13.610000    0.916570
13.620000    0.917240
13.630000    0.920160
13.640000    0.920830
13.650000    0.921510
13.660000    0.919930
13.670000    0.920610
13.680000    0.919030
13.690000    0.917450
13.700000    0.915860
13.710000    0.914270
13.720000    0.912680
13.730000    0.911080
13.740000    0.909480
13.750000    0.907880
13.760000    0.908540
13.770000    0.909200
13.780000    0.909860
13.790000    0.910520
13.800000    0.913460
13.810000    0.914120
13.820000    0.917060
13.830000    0.920000
13.840000    0.920660
13.850000    0.921330
13.860000    0.924270
13.870000    0.924940
13.880000    0.925610
13.890000    0.926270
13.900000    0.926940
13.910000    0.929900
13.920000    0.930570
13.930000    0.931240
13.940000    0.934200
13.950000    0.937170
13.960000    0.940140
13.970000    0.943110
13.980000    0.946090
13.990000    0.949070
14.000000    0.954360
14.010000    0.957350
14.020000    0.960340
14.030000    0.963330
14.040000    0.966330
14.050000    0.967020
14.060000    0.970020
14.070000    0.970710
14.080000    0.969080
14.090000    0.969770
14.100000    0.968140
14.110000    0.968830
14.120000    0.967190
14.130000    0.965550
14.140000    0.966230
14.150000    0.966910
14.160000    0.965260
14.170000    0.968280
14.180000    0.968960
14.190000    0.971980
14.200000    0.972670
14.210000    0.975690
14.220000    0.978720
14.230000    0.979410
14.240000    0.982440
14.250000    0.983130
14.260000    0.983820
14.270000    0.982160
14.280000    0.980500
14.290000    0.981180
14.300000    0.979520
14.310000    0.977850
14.320000    0.978530
14.330000    0.976850
14.340000    0.977530
14.350000    0.978220
14.360000    0.981260
14.370000    0.981950
14.380000    0.985000
14.390000    0.988050
14.400000    0.991110
14.410000    0.991800
14.420000    0.994860
14.430000    0.997930
14.440000    0.998620
14.450000    0.999310
14.460000    1.000000
14.470000    0.998310
14.480000    0.996610
14.490000    0.994920
14.500000    0.993220
14.510000    0.991510
14.520000    0.989800
14.530000    0.988090
14.540000    0.986380
14.550000    0.984660
14.560000    0.982940
14.570000    0.981220
14.580000    0.979490
14.590000    0.977760
14.600000    0.976030
14.610000    0.974290
14.620000    0.972550
14.630000    0.970800
14.640000    0.969060
14.650000    0.967310
14.660000    0.965550
14.670000    0.963800
14.680000    0.962040
14.690000    0.962690
14.700000    0.960930
14.710000    0.961580
14.720000    0.959810
14.730000    0.960460
14.740000    0.958690
14.750000    0.959340
14.760000    0.959990
14.770000    0.958210
14.780000    0.956420
14.790000    0.954630
14.800000    0.952840
14.810000    0.953490
14.820000    0.949250
14.830000    0.947450
14.840000    0.945640
14.850000    0.943840
14.860000    0.942020
14.870000    0.940210
14.880000    0.938390
14.890000    0.936570
14.900000    0.934750
14.910000    0.932920
14.920000    0.931090
14.930000    0.926790
14.940000    0.924960
14.950000    0.923110
14.960000    0.918800
14.970000    0.916950
14.980000    0.915100
14.990000    0.910770
15.000000    0.908910
15.010000    0.907050
15.020000    0.905180
15.030000    0.903300
15.040000    0.901430
15.050000    0.899550
15.060000    0.897670
15.070000    0.895780
15.080000    0.893890
15.090000    0.892000
15.100000    0.887620
15.110000    0.885720
15.120000    0.883820
15.130000    0.879420
15.140000    0.875010
15.150000    0.870600
15.160000    0.866190
15.170000    0.859260
15.180000    0.852330
15.190000    0.845390
15.200000    0.838440
15.210000    0.831480
15.220000    0.822000
15.230000    0.815020
15.240000    0.805510
15.250000    0.798510
15.260000    0.791490
15.270000    0.781960
15.280000    0.774920
15.290000    0.767870
15.300000    0.760820
15.310000    0.753750
15.320000    0.749200
15.330000    0.742120
15.340000    0.735020
15.350000    0.727920
15.360000    0.720810
15.370000    0.713680
15.380000    0.706800
15.390000    0.699660
15.400000    0.692510
15.410000    0.685350
15.420000    0.678170
15.430000    0.673280
15.440000    0.666090
15.450000    0.661430
15.460000    0.659310
15.470000    0.654650
15.480000    0.652520
15.490000    0.650390
15.500000    0.648260
15.510000    0.648680
15.520000    0.649090
15.530000    0.646960
15.540000    0.647370
15.550000    0.647790
15.560000    0.648210
15.570000    0.648620
15.580000    0.651600
15.590000    0.652020
15.600000    0.652440
15.610000    0.652860
15.620000    0.655850
15.630000    0.656270
15.640000    0.659260
15.650000    0.659690
15.660000    0.662690
15.670000    0.663110
15.680000    0.666110
15.690000    0.666540
15.700000    0.666960
15.710000    0.669970
15.720000    0.670400
15.730000    0.670830
15.740000    0.671250
15.750000    0.669090
15.760000    0.669510
15.770000    0.669940
15.780000    0.667760
15.790000    0.668190
15.800000    0.666010
15.810000    0.663830
15.820000    0.664250
15.830000    0.662060
15.840000    0.659870
15.850000    0.657680
15.860000    0.652870
15.870000    0.650670
15.880000    0.648460
15.890000    0.643640
15.900000    0.641420
15.910000    0.636590
15.920000    0.631750
15.930000    0.629520
15.940000    0.624670
15.950000    0.619810
15.960000    0.617570
15.970000    0.612690
15.980000    0.610450
15.990000    0.608200
16.000000    0.605940
16.010000    0.603680
16.020000    0.601420
16.030000    0.599160
16.040000    0.599530
16.050000    0.597260
16.060000    0.597640
16.070000    0.598010
16.080000    0.598380
16.090000    0.598750
16.100000    0.596470
16.110000    0.596840
16.120000    0.597210
16.130000    0.594930
16.140000    0.595300
16.150000    0.595670
16.160000    0.593370
16.170000    0.591080
16.180000    0.591440
16.190000    0.589140
16.200000    0.586840
16.210000    0.584530
16.220000    0.582220
16.230000    0.579910
16.240000    0.574920
16.250000    0.572600
16.260000    0.567600
16.270000    0.562590
16.280000    0.557570
16.290000    0.552550
16.300000    0.544840
16.310000    0.537110
16.320000    0.529650
16.330000    0.521910
16.340000    0.514160
16.350000    0.503700
16.360000    0.493240
16.370000    0.482750
16.380000    0.472260
16.390000    0.461750
16.400000    0.451230
16.410000    0.438000
16.420000    0.427450
16.430000    0.414190
16.440000    0.403610
16.450000    0.390310
16.460000    0.377000
16.470000    0.366380
16.480000    0.353030
16.490000    0.339670
16.500000    0.329010
16.510000    0.315620
16.520000    0.304930
16.530000    0.291500
16.540000    0.280790
16.550000    0.267770
16.560000    0.256180
16.570000    0.244870
16.580000    0.234070
16.590000    0.223010
16.600000    0.212760
16.610000    0.202800
16.620000    0.193070
16.630000    0.183600
16.640000    0.174420
16.650000    0.166030
16.660000    0.157620
16.670000    0.149480
16.680000    0.142130
16.690000    0.135070
16.700000    0.128250
16.710000    0.121970
16.720000    0.115710
16.730000    0.109970
16.740000    0.104800
16.750000    0.099344
16.760000    0.094712
16.770000    0.090350
16.780000    0.085983
16.790000    0.082164
16.800000    0.078368
16.810000    0.074789
16.820000    0.071510
16.830000    0.068227
16.840000    0.065494
16.850000    0.062731
16.860000    0.059992
16.870000    0.057528
16.880000    0.055033
16.890000    0.052840
16.900000    0.050896
16.910000    0.048699
16.920000    0.047028
16.930000    0.045104
16.940000    0.043457
16.950000    0.042088
16.960000    0.040437
16.970000    0.039064
16.980000    0.037689
16.990000    0.036592
17.000000    0.035494
17.010000    0.034394
17.020000    0.033293
17.030000    0.032191
17.040000    0.031340
17.050000    0.030264
17.060000    0.029411
17.070000    0.028585
17.080000    0.027676
17.090000    0.026809
17.100000    0.025960
17.110000    0.025085
17.120000    0.024189
17.130000    0.023309
17.140000    0.022406
17.150000    0.021450
17.160000    0.020516
17.170000    0.019522
17.180000    0.018498
17.190000    0.017467
17.200000    0.016440
17.210000    0.015382
17.220000    0.014324
17.230000    0.013260
17.240000    0.012223
17.250000    0.011154
17.260000    0.010137
17.270000    0.009117
17.280000    0.008092
17.290000    0.007103
17.300000    0.006196
17.310000    0.005264
17.320000    0.004429
17.330000    0.003567
17.340000    0.002788
17.350000    0.001886
17.360000    0.002002
17.370000    0.001265
17.380000    0.006594
17.390000    0.007070
17.400000    0.007123
17.410000    0.006722
17.420000    0.005820
17.430000    0.004563
17.440000    0.003041
17.450000    0.001257
17.460000    0.003266
17.470000    0.000674
17.480000    0.001851
17.490000    0.002535
17.500000    0.002910
17.510000    0.003935
17.520000    0.003831
17.530000    0.003169
17.540000    0.002659
17.550000    0.002223
17.560000    0.001826
17.570000    0.001455
17.580000    0.001052
17.590000    0.001215
17.600000    0.001100
17.610000    0.001003
17.620000    0.000920
17.630000    0.000852
17.640000    0.000769
17.650000    0.000635
17.660000    0.000595
17.670000    0.000544
17.680000    0.000493
17.690000    0.000444
17.700000    0.000398
17.710000    0.000347
17.720000    0.000324
17.730000    0.000302
17.740000    0.000284
17.750000    0.000268
17.760000    0.000253
17.770000    0.000237
17.780000    0.000224
17.790000    0.000212
17.800000    0.000201
17.810000    0.000192
17.820000    0.000183
17.830000    0.000175
17.840000    0.000168
17.850000    0.000162
17.860000    0.000156
17.870000    0.000151
17.880000    0.000145
17.890000    0.000142
17.900000    0.000140
17.910000    0.000137
17.920000    0.000135
17.930000    0.000133
17.940000    0.000130
17.950000    0.000128
17.960000    0.000144
17.970000    0.000149
17.980000    0.000150
17.990000    0.000149
18.000000    0.000149
18.010000    0.000147
18.020000    0.000146
18.030000    0.000143
18.040000    0.000137
18.050000    0.000119
18.060000    0.000119
18.070000    0.000120
18.080000    0.000120
18.090000    0.000121
18.100000    0.000121
18.110000    0.000122
18.120000    0.000122
18.130000    0.000123
18.140000    0.000123
18.150000    0.000123
18.160000    0.000123
18.170000    0.000123
18.180000    0.000123
18.190000    0.000142
18.200000    0.000149
18.210000    0.000151
18.220000    0.000152
18.230000    0.000151
18.240000    0.000149
18.250000    0.000146
18.260000    0.000141
18.270000    0.000135
18.280000    0.000129
18.290000    0.000119
18.300000    0.000118
18.310000    0.000116
18.320000    0.000114
18.330000    0.000113
18.340000    0.000111
18.350000    0.000110
18.360000    0.000109
18.370000    0.000107
18.380000    0.000106
18.390000    0.000104
18.400000    0.000102
18.410000    0.000099
18.420000    0.000097
18.430000    0.000095
18.440000    0.000093
18.450000    0.000087
18.460000    0.000097
18.470000    0.000099
18.480000    0.000100
18.490000    0.000099
18.500000    0.000098
18.510000    0.000097
18.520000    0.000095
18.530000    0.000093
18.540000    0.000091
18.550000    0.000088
18.560000    0.000085
18.570000    0.000082
18.580000    0.000079
18.590000    0.000076
18.600000    0.000075
18.610000    0.000075
18.620000    0.000074
18.630000    0.000072
18.640000    0.000068
18.650000    0.000061
18.660000    0.000060
18.670000    0.000060
18.680000    0.000059
18.690000    0.000059
18.700000    0.000058
18.710000    0.000058
18.720000    0.000057
18.730000    0.000057
18.740000    0.000064
18.750000    0.000066
18.760000    0.000066
18.770000    0.000066
18.780000    0.000064
18.790000    0.000061
18.800000    0.000054
18.810000    0.000054
18.820000    0.000054
18.830000    0.000053
18.840000    0.000053
18.850000    0.000052
18.860000    0.000052
18.870000    0.000052
18.880000    0.000051
18.890000    0.000051
18.900000    0.000050
18.910000    0.000050
18.920000    0.000054
18.930000    0.000055
18.940000    0.000056
18.950000    0.000057
18.960000    0.000057
18.970000    0.000057
18.980000    0.000056
18.990000    0.000053
19.000000    0.000045
19.010000    0.000045
19.020000    0.000044
19.030000    0.000044
19.040000    0.000043
19.050000    0.000043
19.060000    0.000042
19.070000    0.000042
19.080000    0.000042
19.090000    0.000047
19.100000    0.000048
19.110000    0.000048
19.120000    0.000047
19.130000    0.000045
19.140000    0.000044
19.150000    0.000042
19.160000    0.000041
19.170000    0.000040
19.180000    0.000039
19.190000    0.000039
19.200000    0.000039
19.210000    0.000039
19.220000    0.000040
19.230000    0.000040
19.240000    0.000041
19.250000    0.000042
19.260000    0.000042
19.270000    0.000042
19.280000    0.000042
19.290000    0.000042
19.300000    0.000042
19.310000    0.000041
19.320000    0.000040
19.330000    0.000040
19.340000    0.000039
19.350000    0.000038
19.360000    0.000038
19.370000    0.000037
19.380000    0.000037
19.390000    0.000036
19.400000    0.000036
19.410000    0.000035
19.420000    0.000035
19.430000    0.000034
19.440000    0.000033
19.450000    0.000032
19.460000    0.000032
19.470000    0.000032
19.480000    0.000032
19.490000    0.000033
19.500000    0.000033
19.510000    0.000034
19.520000    0.000034
19.530000    0.000034
19.540000    0.000034
19.550000    0.000033
19.560000    0.000033
19.570000    0.000032
19.580000    0.000031
19.590000    0.000030
19.600000    0.000028
19.610000    0.000027
19.620000    0.000026
19.630000    0.000027
19.640000    0.000028
19.650000    0.000028
19.660000    0.000029
19.670000    0.000029
19.680000    0.000029
19.690000    0.000028
19.700000    0.000028
19.710000    0.000028
19.720000    0.000028
19.730000    0.000028
19.740000    0.000028
19.750000    0.000028
19.760000    0.000027
19.770000    0.000027
19.780000    0.000027
19.790000    0.000027
19.800000    0.000026
19.810000    0.000026
19.820000    0.000026
19.830000    0.000026
19.840000    0.000025
19.850000    0.000025
19.860000    0.000025
19.870000    0.000025
19.880000    0.000025
19.890000    0.000025
19.900000    0.000025
19.910000    0.000025
19.920000    0.000025
19.930000    0.000025
19.940000    0.000024
19.950000    0.000023
19.960000    0.000021
19.970000    0.000022
19.980000    0.000024
19.990000    0.000026
20.000000    0.000026
20.010000    0.000025
20.020000    0.000023
20.030000    0.000022
20.040000    0.000021
20.050000    0.000021
20.060000    0.000021
20.070000    0.000021
20.080000    0.000021
20.090000    0.000021
20.100000    0.000020
20.110000    0.000020
20.120000    0.000021
20.130000    0.000023
20.140000    0.000023
20.150000    0.000024
20.160000    0.000024
20.170000    0.000024
20.180000    0.000024
20.190000    0.000024
20.200000    0.000023
20.210000    0.000023
20.220000    0.000023
20.230000    0.000022
20.240000    0.000022
20.250000    0.000021
20.260000    0.000021
20.270000    0.000020
20.280000    0.000019
20.290000    0.000020
20.300000    0.000021
20.310000    0.000021
20.320000    0.000021
20.330000    0.000021
20.340000    0.000021
20.350000    0.000021
20.360000    0.000021
20.370000    0.000020
20.380000    0.000018
20.390000    0.000017
20.400000    0.000017
20.410000    0.000017
20.420000    0.000017
20.430000    0.000017
20.440000    0.000019
20.450000    0.000019
20.460000    0.000019
20.470000    0.000020
20.480000    0.000020
20.490000    0.000020
20.500000    0.000020
20.510000    0.000020
20.520000    0.000020
20.530000    0.000020
20.540000    0.000020
20.550000    0.000019
20.560000    0.000019
20.570000    0.000019
20.580000    0.000018
20.590000    0.000016
20.600000    0.000016
20.610000    0.000016
20.620000    0.000016
20.630000    0.000016
20.640000    0.000016
20.650000    0.000016
20.660000    0.000016
20.670000    0.000016
20.680000    0.000019
20.690000    0.000020
20.700000    0.000020
20.710000    0.000020
20.720000    0.000020
20.730000    0.000020
20.740000    0.000020
20.750000    0.000020
20.760000    0.000020
20.770000    0.000020
20.780000    0.000019
20.790000    0.000020
20.800000    0.000020
20.810000    0.000020
20.820000    0.000020
20.830000    0.000020
20.840000    0.000020
20.850000    0.000020
20.860000    0.000019
20.870000    0.000019
20.880000    0.000019
20.890000    0.000019
20.900000    0.000019
20.910000    0.000019
20.920000    0.000019
20.930000    0.000019
20.940000    0.000019
20.950000    0.000019
20.960000    0.000018
20.970000    0.000017
20.980000    0.000016
20.990000    0.000016
21.000000    0.000016
21.010000    0.000016
21.020000    0.000016
21.030000    0.000017
21.040000    0.000019
21.050000    0.000019
21.060000    0.000019
21.070000    0.000020
21.080000    0.000020
21.090000    0.000020
21.100000    0.000020
21.110000    0.000019
21.120000    0.000019
21.130000    0.000018
21.140000    0.000015
21.150000    0.000015
21.160000    0.000015
21.170000    0.000015
21.180000    0.000015
21.190000    0.000015
21.200000    0.000015
21.210000    0.000015
21.220000    0.000015
21.230000    0.000015
21.240000    0.000015
21.250000    0.000015
21.260000    0.000015
21.270000    0.000015
21.280000    0.000015
21.290000    0.000017
21.300000    0.000018
21.310000    0.000018
21.320000    0.000018
21.330000    0.000018
21.340000    0.000017
21.350000    0.000017
21.360000    0.000017
21.370000    0.000018
21.380000    0.000018
21.390000    0.000019
21.400000    0.000019
21.410000    0.000019
21.420000    0.000019
21.430000    0.000018
21.440000    0.000017
21.450000    0.000015
21.460000    0.000015
21.470000    0.000017
21.480000    0.000018
21.490000    0.000019
21.500000    0.000019
21.510000    0.000019
21.520000    0.000017
21.530000    0.000015
21.540000    0.000015
21.550000    0.000015
21.560000    0.000015
21.570000    0.000019
21.580000    0.000020
21.590000    0.000020
21.600000    0.000021
21.610000    0.000020
21.620000    0.000020
21.630000    0.000019
21.640000    0.000019
21.650000    0.000018
21.660000    0.000018
21.670000    0.000018
21.680000    0.000018
21.690000    0.000019
21.700000    0.000019
21.710000    0.000020
21.720000    0.000021
21.730000    0.000021
21.740000    0.000021
21.750000    0.000021
21.760000    0.000020
21.770000    0.000019
21.780000    0.000017
21.790000    0.000017
21.800000    0.000018
21.810000    0.000019
21.820000    0.000020
21.830000    0.000020
21.840000    0.000019
21.850000    0.000016
21.860000    0.000015
21.870000    0.000015
21.880000    0.000015
21.890000    0.000015
21.900000    0.000015
21.910000    0.000015
21.920000    0.000015
21.930000    0.000015
21.940000    0.000015
21.950000    0.000015
21.960000    0.000015
21.970000    0.000015
21.980000    0.000018
21.990000    0.000019
22.000000    0.000020
22.010000    0.000021
22.020000    0.000021
22.030000    0.000021
22.040000    0.000021
22.050000    0.000021
22.060000    0.000020
22.070000    0.000020
22.080000    0.000020
22.090000    0.000020
22.100000    0.000021
22.110000    0.000021
22.120000    0.000021
22.130000    0.000020
22.140000    0.000020
22.150000    0.000018
22.160000    0.000016
22.170000    0.000013
22.180000    0.000013
22.190000    0.000013
22.200000    0.000013
22.210000    0.000013
22.220000    0.000013
22.230000    0.000013
22.240000    0.000013
22.250000    0.000013
22.260000    0.000013
22.270000    0.000013
22.280000    0.000013
22.290000    0.000013
22.300000    0.000014
22.310000    0.000018
22.320000    0.000020
22.330000    0.000021
22.340000    0.000021
22.350000    0.000022
22.360000    0.000023
22.370000    0.000023
22.380000    0.000022
22.390000    0.000021
22.400000    0.000017
22.410000    0.000012
22.420000    0.000012
22.430000    0.000012
22.440000    0.000012
22.450000    0.000015
22.460000    0.000018
22.470000    0.000018
22.480000    0.000016
22.490000    0.000012
22.500000    0.000013
22.510000    0.000012
22.520000    0.000013
22.530000    0.000013
22.540000    0.000013
22.550000    0.000013
22.560000    0.000013
22.570000    0.000013
22.580000    0.000013
22.590000    0.000013
22.600000    0.000013
22.610000    0.000013
22.620000    0.000013
22.630000    0.000013
22.640000    0.000013
22.650000    0.000013
22.660000    0.000013
22.670000    0.000013
22.680000    0.000013
22.690000    0.000014
22.700000    0.000014
22.710000    0.000014
22.720000    0.000014
22.730000    0.000014
22.740000    0.000014
22.750000    0.000014
22.760000    0.000014
22.770000    0.000014
22.780000    0.000014
22.790000    0.000014
22.800000    0.000014
22.810000    0.000014
22.820000    0.000014
22.830000    0.000014
22.840000    0.000014
22.850000    0.000014
22.860000    0.000014
22.870000    0.000014
22.880000    0.000014
22.890000    0.000015
22.900000    0.000015
22.910000    0.000015
22.920000    0.000015
22.930000    0.000015
22.940000    0.000015
22.950000    0.000015
22.960000    0.000015
22.970000    0.000015
22.980000    0.000015
22.990000    0.000015
23.000000    0.000015
23.010000    0.000015
23.020000    0.000018
23.030000    0.000024
23.040000    0.000022
23.050000    0.000015
23.060000    0.000015
23.070000    0.000015
23.080000    0.000015
23.090000    0.000015
23.100000    0.000015
23.110000    0.000015
23.120000    0.000015
23.130000    0.000015
23.140000    0.000015
23.150000    0.000015
23.160000    0.000026
23.170000    0.000035
23.180000    0.000042
23.190000    0.000047
23.200000    0.000049
23.210000    0.000048
23.220000    0.000046
23.230000    0.000045
23.240000    0.000043
23.250000    0.000040
23.260000    0.000039
23.270000    0.000037
23.280000    0.000035
23.290000    0.000032
23.300000    0.000028
23.310000    0.000024
23.320000    0.000020
23.330000    0.000016
23.340000    0.000017
23.350000    0.000017
23.360000    0.000017
23.370000    0.000017
23.380000    0.000017
23.390000    0.000013
23.400000    0.000020
23.410000    0.000023
23.420000    0.000024
23.430000    0.000024
23.440000    0.000024
23.450000    0.000025
23.460000    0.000024
23.470000    0.000014
23.480000    0.000019
23.490000    0.000019
23.500000    0.000019
23.510000    0.000019
23.520000    0.000019
23.530000    0.000019
23.540000    0.000019
23.550000    0.000019
23.560000    0.000020
23.570000    0.000020
23.580000    0.000020
23.590000    0.000020
23.600000    0.000020
23.610000    0.000020
23.620000    0.000021
23.630000    0.000021
23.640000    0.000021
23.650000    0.000021
23.660000    0.000021
23.670000    0.000021
23.680000    0.000022
23.690000    0.000026
23.700000    0.000035
23.710000    0.000041
23.720000    0.000047
23.730000    0.000051
23.740000    0.000054
23.750000    0.000054
23.760000    0.000049
23.770000    0.000032
23.780000    0.000024
23.790000    0.000024
23.800000    0.000024
23.810000    0.000025
23.820000    0.000025
23.830000    0.000025
23.840000    0.000043
23.850000    0.000057
23.860000    0.000063
23.870000    0.000066
23.880000    0.000066
23.890000    0.000064
23.900000    0.000063
23.910000    0.000062
23.920000    0.000058
23.930000    0.000050
23.940000    0.000037
23.950000    0.000029
23.960000    0.000029
23.970000    0.000030
23.980000    0.000030
23.990000    0.000030
24.000000    0.000017
24.010000    0.000051
24.020000    0.000066
24.030000    0.000076
24.040000    0.000078
24.050000    0.000076
24.060000    0.000073
24.070000    0.000071
24.080000    0.000069
24.090000    0.000067
24.100000    0.000066
24.110000    0.000065
24.120000    0.000065
24.130000    0.000064
24.140000    0.000064
24.150000    0.000064
24.160000    0.000065
24.170000    0.000067
24.180000    0.000070
24.190000    0.000073
24.200000    0.000073
24.210000    0.000071
24.220000    0.000063
24.230000    0.000046
24.240000    0.000039
24.250000    0.000039
24.260000    0.000040
24.270000    0.000040
24.280000    0.000041
24.290000    0.000041
24.300000    0.000042
24.310000    0.000061
24.320000    0.000075
24.330000    0.000080
24.340000    0.000080
24.350000    0.000079
24.360000    0.000076
24.370000    0.000072
24.380000    0.000069
24.390000    0.000068
24.400000    0.000070
24.410000    0.000072
24.420000    0.000074
24.430000    0.000075
24.440000    0.000076
24.450000    0.000081
24.460000    0.000088
24.470000    0.000095
24.480000    0.000100
24.490000    0.000106
24.500000    0.000111
24.510000    0.000113
24.520000    0.000110
24.530000    0.000104
24.540000    0.000099
24.550000    0.000093
24.560000    0.000086
24.570000    0.000077
24.580000    0.000066
24.590000    0.000049
24.600000    0.000067
24.610000    0.000069
24.620000    0.000070
24.630000    0.000071
24.640000    0.000034
24.650000    0.000086
24.660000    0.000113
24.670000    0.000133
24.680000    0.000145
24.690000    0.000150
24.700000    0.000150
24.710000    0.000144
24.720000    0.000135
24.730000    0.000121
24.740000    0.000107
24.750000    0.000095
24.760000    0.000087
24.770000    0.000083
24.780000    0.000081
24.790000    0.000075
24.800000    0.000068
24.810000    0.000069
24.820000    0.000082
24.830000    0.000095
24.840000    0.000107
24.850000    0.000120
24.860000    0.000136
24.870000    0.000144
24.880000    0.000138
24.890000    0.000117
24.900000    0.000088
24.910000    0.000015
24.920000    0.000192
24.930000    0.000201
24.940000    0.000213
24.950000    0.000227
24.960000    0.000242
24.970000    0.000256
24.980000    0.000271
24.990000    0.000288
25.000000    0.000306
25.010000    0.000329
25.020000    0.000351
25.030000    0.000375
25.040000    0.000400
25.050000    0.000431
25.060000    0.000455
25.070000    0.000487
25.080000    0.000520
25.090000    0.000556
25.100000    0.000592
25.110000    0.000633
25.120000    0.000112
25.130000    0.000151
25.140000    0.000170
25.150000    0.000177
25.160000    0.000175
25.170000    0.000176
25.180000    0.000206
25.190000    0.000269
25.200000    0.000340
25.210000    0.000408
25.220000    0.000477
25.230000    0.000548
25.240000    0.000609
25.250000    0.000648
25.260000    0.000665
25.270000    0.000671
25.280000    0.000676
25.290000    0.000684
25.300000    0.000692
25.310000    0.000694
25.320000    0.000676
25.330000    0.000639
25.340000    0.000598
25.350000    0.000553
25.360000    0.000493
25.370000    0.000423
25.380000    0.000398
25.390000    0.000459
25.400000    0.000542
25.410000    0.000604
25.420000    0.000645
25.430000    0.000680
25.440000    0.000717
25.450000    0.000759
25.460000    0.000803
25.470000    0.000843
25.480000    0.000875
25.490000    0.000900
25.500000    0.000923
25.510000    0.000946
25.520000    0.000961
25.530000    0.000977
25.540000    0.000990
25.550000    0.000998
25.560000    0.001006
25.570000    0.001004
25.580000    0.000998
25.590000    0.000986
25.600000    0.000970
25.610000    0.000954
25.620000    0.000941
25.630000    0.000929
25.640000    0.000917
25.650000    0.000906
25.660000    0.000896
25.670000    0.000886
25.680000    0.000881
25.690000    0.000875
25.700000    0.000863
25.710000    0.000837
25.720000    0.000805
25.730000    0.000772
25.740000    0.000740
25.750000    0.000706
25.760000    0.000669
25.770000    0.000648
25.780000    0.000651
25.790000    0.000665
25.800000    0.000675
25.810000    0.000681
25.820000    0.000690
25.830000    0.000698
25.840000    0.000702
25.850000    0.000698
25.860000    0.000692
25.870000    0.000687
25.880000    0.000683
25.890000    0.000678
25.900000    0.000674
25.910000    0.000666
25.920000    0.000654
25.930000    0.000640
25.940000    0.000627
25.950000    0.000613
25.960000    0.000601
25.970000    0.000592
25.980000    0.000585
25.990000    0.000583
26.000000    0.000582
26.010000    0.000579
26.020000    0.000578
26.030000    0.000579
26.040000    0.000583
26.050000    0.000590
26.060000    0.000599
26.070000    0.000610
26.080000    0.000627
26.090000    0.000639
26.100000    0.000644
26.110000    0.000638
26.120000    0.000623
26.130000    0.000604
26.140000    0.000581
26.150000    0.000557
26.160000    0.000532
26.170000    0.000507
26.180000    0.000485
26.190000    0.000465
26.200000    0.000447
26.210000    0.000428
26.220000    0.000401
26.230000    0.000369
26.240000    0.000348
26.250000    0.000353
26.260000    0.000379
26.270000    0.000407
26.280000    0.000427
26.290000    0.000447
26.300000    0.000469
26.310000    0.000488
26.320000    0.000497
26.330000    0.000496
26.340000    0.000496
26.350000    0.000496
26.360000    0.000498
26.370000    0.000500
26.380000    0.000498
26.390000    0.000504
26.400000    0.000510
26.410000    0.000521
26.420000    0.000528
26.430000    0.000534
26.440000    0.000540
26.450000    0.000537
26.460000    0.000527
26.470000    0.000505
26.480000    0.000473
26.490000    0.000433
26.500000    0.000393
26.510000    0.000349
26.520000    0.000297
26.530000    0.000236
26.540000    0.000156
26.550000    0.000626
26.560000    0.000630
26.570000    0.000636
26.580000    0.000643
26.590000    0.000651
26.600000    0.000654
26.610000    0.000658
26.620000    0.000665
26.630000    0.000671
26.640000    0.000675
26.650000    0.000682
26.660000    0.000137
26.670000    0.000174
26.680000    0.000189
26.690000    0.000198
26.700000    0.000206
26.710000    0.000218
26.720000    0.000232
26.730000    0.000237
26.740000    0.000222
26.750000    0.000186
26.760000    0.000136
26.770000    0.000065
26.780000    0.000662
26.790000    0.000659
26.800000    0.000660
26.810000    0.000657
26.820000    0.000654
26.830000    0.000649
26.840000    0.000639
26.850000    0.000633
26.860000    0.000624
26.870000    0.000617
26.880000    0.000609
26.890000    0.000092
26.900000    0.000139
26.910000    0.000172
26.920000    0.000196
26.930000    0.000216
26.940000    0.000234
26.950000    0.000253
26.960000    0.000271
26.970000    0.000291
26.980000    0.000309
26.990000    0.000327
27.000000    0.000339
27.010000    0.000342
27.020000    0.000343
27.030000    0.000339
27.040000    0.000332
27.050000    0.000324
27.060000    0.000315
27.070000    0.000306
27.080000    0.000297
27.090000    0.000288
27.100000    0.000279
27.110000    0.000270
27.120000    0.000260
27.130000    0.000251
27.140000    0.000242
27.150000    0.000233
27.160000    0.000224
27.170000    0.000215
27.180000    0.000197
27.190000    0.000176
27.200000    0.000158
27.210000    0.000141
27.220000    0.000125
27.230000    0.000111
27.240000    0.000099
27.250000    0.000089
27.260000    0.000081
27.270000    0.000075
27.280000    0.000068
27.290000    0.000062
27.300000    0.000056
27.310000    0.000050
27.320000    0.000046
27.330000    0.000041
27.340000    0.000037
27.350000    0.000034
27.360000    0.000030
27.370000    0.000027
27.380000    0.000024
27.390000    0.000021
27.400000    0.000019
27.410000    0.000017
27.420000    0.000015
27.430000    0.000013
27.440000    0.000012
27.450000    0.000011
27.460000    0.000009
27.470000    0.000008
27.480000    0.000007
27.490000    0.000006
27.500000    0.000006
27.510000    0.000005
27.520000    0.000004
27.530000    0.000004
27.540000    0.000004
27.550000    0.000003
27.560000    0.000003
27.570000    0.000003
27.580000    0.000003
27.590000    0.000003
27.600000    0.000003
27.610000    0.000003
27.620000    0.000003
27.630000    0.000003
27.640000    0.000003
27.650000    0.000003
27.660000    0.000002
27.670000    0.000002
27.680000    0.000002
27.690000    0.000002
27.700000    0.000002
27.710000    0.000002
27.720000    0.000002
27.730000    0.000002
27.740000    0.000002
27.750000    0.000002
27.760000    0.000003
27.770000    0.000003
27.780000    0.000003
27.790000    0.000003
27.800000    0.000003
27.810000    0.000003
27.820000    0.000004
27.830000    0.000004
27.840000    0.000004
27.850000    0.000004
27.860000    0.000005
27.870000    0.000005
27.880000    0.000005
27.890000    0.000006
27.900000    0.000006
27.910000    0.000006
27.920000    0.000007
27.930000    0.000007
27.940000    0.000008
27.950000    0.000009
27.960000    0.000009
27.970000    0.000010
27.980000    0.000010
27.990000    0.000011
28.000000    0.000012
28.050000    0.000013
28.100000    0.000017
28.150000    0.000020
28.200000    0.000023
28.250000    0.000027
28.300000    0.000030
28.350000    0.000031
28.400000    0.000032
28.450000    0.000037
28.500000    0.000039
28.550000    0.000041
