# file: SDSS-USNO-40.atm
# url: http://www-star.fnal.gov/ugriz/Filters/response.html
# ytype: tau
# xtype: wavelength
# reference: Smith et al., 2002, AJ 123, 2121
# instrument: SDSS
# atmosphere: SDSS-USNO-40
# xunit: Angstrom
 3080.000000    1.573340
 3105.000000    1.398911
 3130.000000    1.250837
 3155.000000    1.065306
 3180.000000    0.935858
 3205.000000    0.843818
 3230.000000    0.780038
 3255.000000    0.730036
 3280.000000    0.692031
 3305.000000    0.656201
 3330.000000    0.625565
 3355.000000    0.600194
 3380.000000    0.583015
 3405.000000    0.567382
 3430.000000    0.557546
 3455.000000    0.543113
 3480.000000    0.517933
 3505.000000    0.492412
 3530.000000    0.474607
 3555.000000    0.462800
 3580.000000    0.453965
 3605.000000    0.445031
 3630.000000    0.434281
 3655.000000    0.422516
 3680.000000    0.410611
 3705.000000    0.400011
 3730.000000    0.391212
 3755.000000    0.383629
 3780.000000    0.376612
 3805.000000    0.369586
 3830.000000    0.361670
 3855.000000    0.353296
 3880.000000    0.343961
 3905.000000    0.333888
 3930.000000    0.323331
 3955.000000    0.312341
 3980.000000    0.301772
 4030.000000    0.283881
 4080.000000    0.269962
 4130.000000    0.257814
 4180.000000    0.246365
 4230.000000    0.235727
 4280.000000    0.225794
 4330.000000    0.216470
 4380.000000    0.207510
 4430.000000    0.198770
 4480.000000    0.190294
 4530.000000    0.182245
 4580.000000    0.174801
 4630.000000    0.168030
 4680.000000    0.162084
 4730.000000    0.157154
 4780.000000    0.152753
 4830.000000    0.148216
 4880.000000    0.143648
 4930.000000    0.139869
 4980.000000    0.136977
 5030.000000    0.134676
 5080.000000    0.132663
 5130.000000    0.130792
 5180.000000    0.128848
 5230.000000    0.126632
 5280.000000    0.124247
 5330.000000    0.121871
 5380.000000    0.119746
 5430.000000    0.117939
 5480.000000    0.116791
 5530.000000    0.115909
 5580.000000    0.115303
 5630.000000    0.114518
 5680.000000    0.113993
 5730.000000    0.113072
 5780.000000    0.111716
 5830.000000    0.109726
 5880.000000    0.106981
 5930.000000    0.103431
 5980.000000    0.099027
 6030.000000    0.093730
 6080.000000    0.088093
 6130.000000    0.083176
 6180.000000    0.079313
 6230.000000    0.076282
 6280.000000    0.073862
 6330.000000    0.071760
 6380.000000    0.069759
 6430.000000    0.067878
 6480.000000    0.065898
 6530.000000    0.063602
 6580.000000    0.062103
 6630.000000    0.063660
 6680.000000    0.067289
 6730.000000    0.065461
 6780.000000    0.052027
 6830.000000    0.069334
 6880.000000    0.121020
 6930.000000    0.096664
 6980.000000    0.056963
 7030.000000    0.045013
 7080.000000    0.018078
 7130.000000    0.038444
 7180.000000    0.122003
 7230.000000    0.085663
 7280.000000    0.088535
 7330.000000    0.058068
 7380.000000    0.051322
 7430.000000    0.047564
 7480.000000    0.049993
 7530.000000    0.060098
 7580.000000    0.058612
 7630.000000    0.423381
 7680.000000    0.047992
 7730.000000    0.043328
 7780.000000    0.044128
 7830.000000    0.047742
 7880.000000    0.047599
 7930.000000    0.037766
 7980.000000    0.022855
 8030.000000    0.015860
 8080.000000    0.029865
 8130.000000    0.074007
 8150.000000    0.092927
 8180.000000    0.113104
 8220.000000    0.123248
 8230.000000    0.122907
 8280.000000    0.101623
 8290.000000    0.093500
 8330.000000    0.053030
 8360.000000    0.041968
 8380.000000    0.043292
 8430.000000    0.044601
 8480.000000    0.044175
 8500.000000    0.043692
 8530.000000    0.042686
 8570.000000    0.041673
 8580.000000    0.040788
 8640.000000    0.041079
 8710.000000    0.042915
 8780.000000    0.044633
 8850.000000    0.043283
 8920.000000    0.056441
 8990.000000    0.149073
 9060.000000    0.107033
 9130.000000    0.113044
 9200.000000    0.070875
 9270.000000    0.140236
 9340.000000    0.416209
 9410.000000    0.324994
 9480.000000    0.356718
 9550.000000    0.327887
 9620.000000    0.205988
 9690.000000    0.079059
 9760.000000    0.110546
 9830.000000    0.051065
 9900.000000    0.035639
 9970.000000    0.039299
 10040.000000    0.042001
 10110.000000    0.044792
 10180.000000    0.046481
 10250.000000    0.046044
